sample,packet,eeg1,eeg2,eeg3,eeg4,eeg5,eeg6,eeg7,eeg8,accel1,accel2,accel3,other1,other2,other3,other4,other5,other6,other7,analog1,analog2,analog3,timestamp,marker
0,0.0,0.0,0.0,0.0,0.0,0.0,0.0,0.0,0.0,-0.056,0.972,0.078,192.0,254.0,64.0,30.0,96.0,2.0,112.0,0.0,0.0,0.0,1676478171.414108,0.0
1,1.0,27871.19482412277,42523.09859074338,-36277.55180329702,-31838.741223662048,185562.75195631408,9113.432063273438,-29718.275930675976,-9293.453013116481,-0.056,0.972,0.078,192.0,0.0,0.0,0.0,0.0,0.0,0.0,0.0,0.0,0.0,1676478171.430154,0.0
2,2.0,27942.876868590938,42555.575675436936,-36136.95933067314,-31773.250612408,185681.95380949424,9229.169396063018,-29336.46343189042,-8891.501592576695,-0.056,0.972,0.078,192.0,0.0,0.0,0.0,0.0,0.0,0.0,0.0,0.0,0.0,1676478171.492473,0.0
3,3.0,28085.391591237974,42677.52679318509,-36037.42701261366,-31740.460603292064,185754.70873769626,9312.02731275884,-28850.961190576698,-8237.780122492328,-0.056,0.972,0.078,192.0,0.0,0.0,0.0,0.0,0.0,0.0,0.0,0.0,0.0,1676478171.492485,0.0
4,4.0,28029.623988821982,42656.29263595255,-36184.07680798493,-31816.322423973375,185634.54575950454,9192.736052600867,-29185.20917716136,-8577.236065535077,-0.056,0.972,0.078,192.0,0.0,0.0,0.0,0.0,0.0,0.0,0.0,0.0,0.0,1676478171.492491,0.0
5,5.0,27880.3813910939,42532.66513737025,-36290.67227729229,-31845.334988276365,185544.08824969392,9114.907278407489,-29703.322613635377,-9259.657175500057,-0.056,0.972,0.078,192.0,0.0,0.0,0.0,0.0,0.0,0.0,0.0,0.0,0.0,1676478171.492498,0.0
6,6.0,27918.17819096782,42542.09757353039,-36172.297438656984,-31783.48771136853,185645.319300332,9208.806956864233,-29439.50497382939,-9003.59559102006,-0.056,0.972,0.078,192.0,0.0,0.0,0.0,0.0,0.0,0.0,0.0,0.0,0.0,1676478171.492503,0.0
7,7.0,28065.856166584035,42662.327606955485,-36046.50182086251,-31740.37119631424,185741.00711834518,9313.167251726061,-28891.462551529712,-8301.482594189954,-0.056,0.972,0.078,192.0,0.0,0.0,0.0,0.0,0.0,0.0,0.0,0.0,0.0,1676478171.492509,0.0
8,8.0,28046.141927974455,42677.30327574054,-36157.880563483304,-31800.475037154563,185632.71291645922,9230.01876235232,-29081.161806721906,-8443.617337181251,-0.056,0.97,0.084,192.0,254.0,64.0,30.0,80.0,2.0,160.0,0.0,0.0,0.0,1676478171.492515,0.0
9,9.0,27893.881844744905,42558.928437105234,-36292.6168790599,-31841.758709163514,185542.07659269293,9113.454415017894,-29666.665752728673,-9198.547506159248,-0.056,0.97,0.084,192.0,0.0,0.0,0.0,0.0,0.0,0.0,0.0,0.0,0.0,1676478171.492521,0.0
10,10.0,27896.00526046816,42534.45327692667,-36207.72495361864,-31794.797694062912,185621.7605616761,9185.136459486062,-29535.952751154036,-9111.465109761371,-0.056,0.97,0.084,192.0,0.0,0.0,0.0,0.0,0.0,0.0,0.0,0.0,0.0,1676478171.492527,0.0
11,11.0,28043.83969829556,42650.39177541635,-36052.44738488762,-31735.38675730071,185749.56783647154,9310.08271099123,-28956.751997083666,-8397.684502325596,-0.056,0.97,0.084,192.0,0.0,0.0,0.0,0.0,0.0,0.0,0.0,0.0,0.0,1676478171.492533,0.0
12,12.0,28065.945573561858,42695.944630616264,-36115.456952507135,-31775.172862431154,185686.04417872956,9268.106134904163,-28978.433189205312,-8326.807120657817,-0.056,0.97,0.084,192.0,0.0,0.0,0.0,0.0,0.0,0.0,0.0,0.0,0.0,1676478171.492539,0.0
13,13.0,27913.640786843396,42576.899239647304,-36275.629553273866,-31836.997787594533,185553.76655504305,9141.684668264947,-29592.592071603787,-9104.647827702502,-0.056,0.97,0.084,192.0,0.0,0.0,0.0,0.0,0.0,0.0,0.0,0.0,0.0,1676478171.492545,0.0
14,14.0,27892.69720228877,42532.8886548148,-36211.7482676206,-31792.607223106294,185613.04338133853,9176.57574135968,-29594.961356516047,-9189.897381055043,-0.056,0.97,0.084,192.0,0.0,0.0,0.0,0.0,0.0,0.0,0.0,0.0,0.0,1676478171.492551,0.0
15,15.0,28035.323683658087,42637.33835665445,-36049.02756798596,-31726.781335685413,185740.3365660115,9297.7445480519,-29018.375756546946,-8495.54043955093,-0.056,0.97,0.084,192.0,0.0,0.0,0.0,0.0,0.0,0.0,0.0,0.0,0.0,1676478171.492557,0.0
16,16.0,28098.84734140007,42709.445084267274,-36076.63197238827,-31753.91635345416,185684.45720487324,9293.005978227375,-28895.061182387017,-8234.293250357301,-0.056,0.97,0.084,192.0,0.0,0.0,0.0,0.0,0.0,0.0,0.0,0.0,0.0,1676478171.492563,0.0
17,17.0,27951.370531483954,42600.54738528102,-36257.12230886487,-31831.476906714073,185532.95708095518,9146.959679956399,-29503.699183905028,-8982.227323320785,-0.05,0.98,0.082,192.0,254.0,112.0,30.0,160.0,2.0,144.0,0.0,0.0,0.0,1676478171.552361,0.0
18,18.0,27885.209367896245,42526.74192508959,-36238.52565747806,-31805.392420934728,185565.56827611546,9155.922729482976,-29654.461700256077,-9243.58627123669,-0.05,0.98,0.082,192.0,0.0,0.0,0.0,0.0,0.0,0.0,0.0,0.0,0.0,1676478171.552373,0.0
19,19.0,28011.362613602,42613.667859276284,-36070.373483940784,-31731.363443298753,185684.2336874287,9285.942826979497,-29114.89058910496,-8622.788920734993,-0.05,0.98,0.082,192.0,0.0,0.0,0.0,0.0,0.0,0.0,0.0,0.0,0.0,1676478171.55238,0.0
20,20.0,28109.866751416535,42710.78618893459,-36049.22873368606,-31732.57043749934,185677.01407396962,9316.587068627723,-28847.876649841866,-8188.874505624117,-0.05,0.98,0.082,192.0,0.0,0.0,0.0,0.0,0.0,0.0,0.0,0.0,0.0,1676478171.552387,0.0
21,21.0,27979.041991119622,42622.02741170257,-36234.54704696501,-31817.887046085245,185512.9746214121,9176.776907059779,-29399.115371598647,-8837.365667505941,-0.05,0.98,0.082,192.0,0.0,0.0,0.0,0.0,0.0,0.0,0.0,0.0,0.0,1676478171.552393,0.0
22,22.0,27882.66126902834,42528.865340812845,-36258.68693097674,-31806.35354594631,185518.65196450378,9173.893532025044,-29692.146741407723,-9270.587178538703,-0.05,0.98,0.082,192.0,0.0,0.0,0.0,0.0,0.0,0.0,0.0,0.0,0.0,1676478171.552405,0.0
23,23.0,27988.407372046397,42594.60182125591,-36093.39578072975,-31731.922236910134,185674.5330303351,9296.492850362403,-29215.339328687114,-8752.809018231514,-0.05,0.98,0.082,192.0,0.0,0.0,0.0,0.0,0.0,0.0,0.0,0.0,0.0,1676478171.552411,0.0
24,24.0,28100.32255653412,42698.55978471754,-36035.616521312775,-31722.400393772175,185696.41538815683,9322.666743119567,-28823.110916985384,-8190.975569602915,-0.05,0.98,0.082,192.0,0.0,0.0,0.0,0.0,0.0,0.0,0.0,0.0,0.0,1676478171.552417,0.0
25,25.0,28002.891302453438,42641.9651677567,-36199.07482851444,-31799.871540054268,185542.5012758376,9186.790488575756,-29273.945602648928,-8694.694482647716,-0.05,0.98,0.082,192.0,0.0,0.0,0.0,0.0,0.0,0.0,0.0,0.0,0.0,1676478171.552423,0.0
26,26.0,27877.98975443718,42527.88186405681,-36266.688855491746,-31808.432258180652,185502.49165326258,9140.611784531091,-29697.935843221647,-9270.631882027612,-0.05,0.98,0.082,192.0,0.0,0.0,0.0,0.0,0.0,0.0,0.0,0.0,0.0,1676478171.552429,0.0
27,27.0,27951.996380328703,42562.32590226244,-36124.46470552262,-31741.354673070276,185629.40485827983,9252.236396340895,-29323.432364872977,-8877.263531358663,-0.056,0.976,0.088,192.0,254.0,64.0,30.0,128.0,2.0,192.0,0.0,0.0,0.0,1676478171.552436,0.0
28,28.0,28092.11946631902,42679.82902286399,-36020.864369972274,-31711.403335500163,185700.05872250305,9339.318792738772,-28830.688158355733,-8216.076578626225,-0.056,0.976,0.088,192.0,0.0,0.0,0.0,0.0,0.0,0.0,0.0,0.0,0.0,1676478171.552442,0.0
29,29.0,28040.285770927167,42664.74159535666,-36160.85334549587,-31782.347772401306,185575.6042093759,9230.555204219247,-29155.928391924906,-8542.948489540637,-0.056,0.976,0.088,192.0,0.0,0.0,0.0,0.0,0.0,0.0,0.0,0.0,0.0,1676478171.552448,0.0
30,30.0,27894.462990100743,42540.331785718416,-36267.62762875886,-31813.953139061112,185508.7277899656,9144.255118877307,-29672.2536888425,-9232.477454242404,-0.056,0.976,0.088,192.0,0.0,0.0,0.0,0.0,0.0,0.0,0.0,0.0,0.0,1676478171.552454,0.0
31,31.0,27935.612551642964,42547.61845441085,-36145.14006914378,-31750.742405741505,185636.51271301662,9242.423980525014,-29410.96179615996,-8988.664625723914,-0.056,0.976,0.088,192.0,0.0,0.0,0.0,0.0,0.0,0.0,0.0,0.0,0.0,1676478171.55246,0.0
32,32.0,28080.56361443563,42668.67550238079,-36018.360974593284,-31708.721126165525,185748.22673180423,9342.917423596076,-28860.6618476703,-8283.936474792537,-0.056,0.976,0.088,192.0,0.0,0.0,0.0,0.0,0.0,0.0,0.0,0.0,0.0,1676478171.610168,0.0
33,33.0,28065.140910761467,42685.30520025554,-36127.906874168744,-31768.66850479466,185651.33191959048,9254.091591130686,-29039.676969012853,-8411.564935632341,-0.056,0.976,0.088,192.0,0.0,0.0,0.0,0.0,0.0,0.0,0.0,0.0,0.0,1676478171.610215,0.0
34,34.0,27908.879865274415,42560.604817939384,-36271.11450089389,-31818.57995016336,185554.63827307682,9135.023848417264,-29629.874781355236,-9171.792468046246,-0.056,0.976,0.088,192.0,0.0,0.0,0.0,0.0,0.0,0.0,0.0,0.0,0.0,1676478171.610222,0.0
35,35.0,27915.76420256665,42541.9411113192,-36184.72500857413,-31767.550917571894,185654.39410858086,9201.721453871902,-29509.041250829847,-9094.902467119988,-0.056,0.976,0.088,192.0,0.0,0.0,0.0,0.0,0.0,0.0,0.0,0.0,0.0,1676478171.610228,0.0
36,36.0,28069.387742207975,42661.38883368836,-36028.93334972064,-31707.08944882029,185799.18870916232,9328.969935055964,-28928.4770403477,-8375.08688868128,-0.056,0.976,0.088,192.0,0.0,0.0,0.0,0.0,0.0,0.0,0.0,0.0,0.0,1676478171.610234,0.0
37,37.0,28086.486826716286,42703.007781864144,-36103.632879690274,-31755.726844755038,185729.3395077395,9276.108059419163,-28952.035779003596,-8291.40195744061,-0.052000000000000005,0.976,0.08600000000000001,192.0,254.0,96.0,30.0,128.0,2.0,176.0,0.0,0.0,0.0,1676478171.61024,0.0
38,38.0,27928.594103883996,42584.52118450656,-36268.38758807035,-31820.189275764144,185608.23775628064,9147.183197400951,-29571.782597515896,-9067.119248762041,-0.052000000000000005,0.976,0.08600000000000001,192.0,0.0,0.0,0.0,0.0,0.0,0.0,0.0,0.0,0.0,1676478171.610246,0.0
39,39.0,27894.99943196767,42533.58155889292,-36212.82115135445,-31777.34098164332,185683.80900428403,9198.033416036775,-29591.228615192013,-9161.443610363438,-0.052000000000000005,0.976,0.08600000000000001,192.0,0.0,0.0,0.0,0.0,0.0,0.0,0.0,0.0,0.0,1676478171.610253,0.0
40,40.0,28031.412128378408,42629.98463272866,-36051.59801859832,-31717.170085569633,185853.63755865546,9316.251792460895,-29014.084221611527,-8482.06233764438,-0.052000000000000005,0.976,0.08600000000000001,192.0,0.0,0.0,0.0,0.0,0.0,0.0,0.0,0.0,0.0,1676478171.610259,0.0
41,41.0,28087.80557963915,42698.98446786219,-36077.213117744104,-31749.401301074184,185833.3645264345,9311.334408680726,-28878.431484512268,-8210.466290767943,-0.052000000000000005,0.976,0.08600000000000001,192.0,0.0,0.0,0.0,0.0,0.0,0.0,0.0,0.0,0.0,1676478171.610265,0.0
42,42.0,27943.636827902417,42596.546423023516,-36249.76858493908,-31823.676147899172,185713.40271394287,9161.063630707697,-29474.485453901943,-8952.63361366196,-0.052000000000000005,0.976,0.08600000000000001,192.0,0.0,0.0,0.0,0.0,0.0,0.0,0.0,0.0,0.0,1676478171.610271,0.0
43,43.0,27877.76623699263,42520.10345698636,-36234.32352952046,-31796.0046882635,185745.3880602584,9168.596168589136,-29640.782432649426,-9235.182015321496,-0.052000000000000005,0.976,0.08600000000000001,192.0,0.0,0.0,0.0,0.0,0.0,0.0,0.0,0.0,0.0,1676478171.610287,0.0
44,44.0,27997.97391867327,42598.088693390935,-36074.68737062065,-31733.486859022007,185879.878506646,9298.348045152194,-29113.28126350418,-8622.408941079253,-0.052000000000000005,0.976,0.08600000000000001,192.0,0.0,0.0,0.0,0.0,0.0,0.0,0.0,0.0,0.0,1676478171.610293,0.0
45,45.0,28083.759913892736,42689.507328213134,-36061.43278615866,-31747.836678962314,185890.69675096235,9303.913629521565,-28843.249838739615,-8182.772479387818,-0.052000000000000005,0.976,0.08600000000000001,192.0,0.0,0.0,0.0,0.0,0.0,0.0,0.0,0.0,0.0,1676478171.610299,0.0
46,46.0,27961.987610100226,42607.11879815088,-36245.007663370096,-31834.337930004353,185746.68446143682,9161.108334196608,-29389.638231949597,-8829.542556946582,-0.052000000000000005,0.976,0.08600000000000001,192.0,0.0,0.0,0.0,0.0,0.0,0.0,0.0,0.0,0.0,1676478171.610305,0.0
47,47.0,27862.835271696484,42506.64770682427,-36275.3613323404,-31827.431240967664,185759.8943424099,9140.321211853172,-29694.247805386523,-9274.565789051747,-0.054,0.974,0.088,192.0,254.0,80.0,30.0,112.0,2.0,192.0,0.0,0.0,0.0,1676478171.670014,0.0
48,48.0,27959.86419437697,42566.416271497765,-36121.87190316581,-31757.0455976779,185905.15832962494,9251.297623073771,-29240.373282477056,-8768.276425394586,-0.054,0.974,0.088,192.0,0.0,0.0,0.0,0.0,0.0,0.0,0.0,0.0,0.0,1676478171.670027,0.0
49,49.0,28081.502387702752,42676.00687456213,-36057.856507045806,-31742.47226029304,185951.82877204762,9316.408254672082,-28841.66286488329,-8190.103851569159,-0.054,0.974,0.088,192.0,0.0,0.0,0.0,0.0,0.0,0.0,0.0,0.0,0.0,1676478171.670035,0.0
50,50.0,27995.69404073883,42628.50941759461,-36215.771581622554,-31814.9589675616,185829.22945371026,9185.874067053088,-29280.002925396315,-8675.583741138427,-0.054,0.974,0.088,192.0,0.0,0.0,0.0,0.0,0.0,0.0,0.0,0.0,0.0,1676478171.670043,0.0
51,51.0,27863.215251352223,42511.6321458378,-36287.297163879535,-31831.20868578061,185801.1109591855,9116.002513885798,-29711.615110828297,-9263.993413924387,-0.054,0.974,0.088,192.0,0.0,0.0,0.0,0.0,0.0,0.0,0.0,0.0,0.0,1676478171.67005,0.0
52,52.0,27926.85066781648,42543.17045726424,-36149.856287223854,-31768.512042583472,185928.381792114,9228.610602451636,-29355.730635610897,-8890.0487291871,-0.054,0.974,0.088,192.0,0.0,0.0,0.0,0.0,0.0,0.0,0.0,0.0,0.0,1676478171.670057,0.0
53,53.0,28069.611259652527,42668.407281447326,-36040.82447777087,-31734.38092880022,186014.1007321001,9314.08367324873,-28856.035036568053,-8217.305924571267,-0.054,0.974,0.088,192.0,0.0,0.0,0.0,0.0,0.0,0.0,0.0,0.0,0.0,1676478171.670064,0.0
54,54.0,28020.571532317586,42654.48214465167,-36184.09915972938,-31806.57706339086,185893.89305041946,9191.10437525563,-29174.078008422617,-8532.174948713178,-0.054,0.974,0.088,192.0,0.0,0.0,0.0,0.0,0.0,0.0,0.0,0.0,0.0,1676478171.670071,0.0
55,55.0,27873.60881252394,42530.206445480166,-36298.94242274075,-31841.155212063222,185830.45879965532,9099.37281601105,-29706.384802625755,-9242.580442736202,-0.054,0.974,0.088,192.0,0.0,0.0,0.0,0.0,0.0,0.0,0.0,0.0,0.0,1676478171.670078,0.0
56,56.0,27903.537798349596,42531.07816351392,-36192.54811913349,-31785.58877534733,185945.7938010447,9191.05967176672,-29465.991791008928,-9013.810338236135,-0.054,0.974,0.088,192.0,0.0,0.0,0.0,0.0,0.0,0.0,0.0,0.0,0.0,1676478171.670085,0.0
57,57.0,28049.964076276312,42650.503534138625,-36069.70293160712,-31742.360501570765,186045.54963654873,9298.146879452095,-28919.782211754587,-8301.2590767454,-0.05,0.976,0.08600000000000001,192.0,254.0,112.0,30.0,128.0,2.0,176.0,0.0,0.0,0.0,1676478171.670092,0.0
58,58.0,28048.488861142265,42673.302313483044,-36160.74158677359,-31789.254461438,185967.7432140998,9230.10816933014,-29074.27746942967,-8393.32591215681,-0.05,0.976,0.08600000000000001,192.0,0.0,0.0,0.0,0.0,0.0,0.0,0.0,0.0,0.0,1676478171.670099,0.0
59,59.0,27896.295833146076,42551.105326545876,-36291.02990520357,-31830.53813344695,185894.27303007522,9120.316400565673,-29654.215831067067,-9152.637023048046,-0.05,0.976,0.08600000000000001,192.0,0.0,0.0,0.0,0.0,0.0,0.0,0.0,0.0,0.0,1676478171.670105,0.0
60,60.0,27906.577635595517,42535.23558798261,-36204.34984020589,-31778.90560375519,185987.88213585404,9190.38911943306,-29545.0722628918,-9096.064757831664,-0.05,0.976,0.08600000000000001,192.0,0.0,0.0,0.0,0.0,0.0,0.0,0.0,0.0,0.0,1676478171.670112,0.0
61,61.0,28061.207003737334,42655.53267664107,-36054.0567104884,-31722.80272517237,186097.89742206305,9306.417024900558,-28970.230098990214,-8381.568894573318,-0.05,0.976,0.08600000000000001,192.0,0.0,0.0,0.0,0.0,0.0,0.0,0.0,0.0,0.0,1676478171.670119,0.0
62,62.0,28091.963004107834,42705.332363287496,-36116.97687113009,-31765.271039637453,186040.85577021312,9269.78251573831,-28975.661572892855,-8282.237742213934,-0.05,0.976,0.08600000000000001,192.0,0.0,0.0,0.0,0.0,0.0,0.0,0.0,0.0,0.0,1676478171.730212,0.0
63,63.0,27938.76414761116,42593.79715845551,-36277.48474806365,-31825.68780490015,185933.3438793831,9131.559328026691,-29586.892376767682,-9060.100801003075,-0.05,0.976,0.08600000000000001,192.0,0.0,0.0,0.0,0.0,0.0,0.0,0.0,0.0,0.0,1676478171.730257,0.0
64,64.0,27902.599025082473,42544.93624507621,-36230.21080854068,-31785.94640325861,185990.78786263324,9173.021813991287,-29621.515228928954,-9174.519380869791,-0.05,0.976,0.08600000000000001,192.0,0.0,0.0,0.0,0.0,0.0,0.0,0.0,0.0,0.0,1676478171.730307,0.0
65,65.0,28034.586076091062,42639.99821424463,-36075.961420054606,-31729.84352467579,186118.59513742867,9288.021539213842,-29062.94513499083,-8504.101157677313,-0.05,0.976,0.08600000000000001,192.0,0.0,0.0,0.0,0.0,0.0,0.0,0.0,0.0,0.0,1676478171.730335,0.0
66,66.0,28102.825951913113,42721.962061162245,-36087.3161062379,-31746.540277783904,186099.81967208622,9284.668777545545,-28911.109734905927,-8203.470194753432,-0.05,0.976,0.08600000000000001,192.0,0.0,0.0,0.0,0.0,0.0,0.0,0.0,0.0,0.0,1676478171.730361,0.0
67,67.0,27964.602764201496,42625.35782162641,-36259.91627692179,-31817.551769918417,185973.01822579125,9151.675898036468,-29499.31824199179,-8930.460683162295,-0.052000000000000005,0.978,0.084,192.0,254.0,96.0,30.0,144.0,2.0,160.0,0.0,0.0,0.0,1676478171.730387,0.0
68,68.0,27884.538815562584,42539.52712291803,-36258.351654809914,-31802.01730752198,185992.77716788976,9143.875139221565,-29684.72596224856,-9235.718457188423,-0.052000000000000005,0.978,0.084,192.0,0.0,0.0,0.0,0.0,0.0,0.0,0.0,0.0,0.0,1676478171.730433,0.0
69,69.0,28004.746497243228,42622.07211519148,-36092.09937955134,-31727.831867674813,186139.3822597721,9270.587178538703,-29161.15870012745,-8623.906507957758,-0.052000000000000005,0.978,0.084,192.0,0.0,0.0,0.0,0.0,0.0,0.0,0.0,0.0,0.0,1676478171.730459,0.0
70,70.0,28109.57617873862,42728.242901354184,-36061.45513790311,-31721.729841438515,186155.07318437973,9308.74160632391,-28862.628801182367,-8152.910548795528,-0.052000000000000005,0.978,0.084,192.0,0.0,0.0,0.0,0.0,0.0,0.0,0.0,0.0,0.0,1676478171.730485,0.0
71,71.0,27993.39181105993,42650.43647890526,-36237.229256299644,-31802.44199066663,186022.3038223152,9166.80802903271,-29394.600319218676,-8783.185038946276,-0.052000000000000005,0.978,0.084,192.0,0.0,0.0,0.0,0.0,0.0,0.0,0.0,0.0,0.0,1676478171.730511,0.0
72,72.0,27898.91098724735,42549.13837303381,-36268.812271215,-31796.33996443033,186043.87325571457,9137.102560651609,-29711.570407339386,-9243.698029958967,-0.052000000000000005,0.978,0.084,192.0,0.0,0.0,0.0,0.0,0.0,0.0,0.0,0.0,0.0,1676478171.730537,0.0
73,73.0,27994.040011649136,42604.19071962723,-36114.51817924001,-31728.99415838649,186169.17713513103,9273.761126251356,-29256.578297207154,-8739.77795121407,-0.052000000000000005,0.978,0.084,192.0,0.0,0.0,0.0,0.0,0.0,0.0,0.0,0.0,0.0,1676478171.730563,0.0
74,74.0,28118.718042220837,42717.558767504546,-36045.58539933985,-31714.152600068166,186204.4034843926,9326.175966999052,-28842.668693383777,-8150.2730429498015,-0.052000000000000005,0.978,0.084,192.0,0.0,0.0,0.0,0.0,0.0,0.0,0.0,0.0,0.0,1676478171.730589,0.0
75,75.0,28038.78820404866,42672.29648498255,-36209.02135479705,-31792.249595195008,186070.8741630166,9188.668035110002,-29276.337239305645,-8631.237880139099,-0.052000000000000005,0.978,0.084,192.0,0.0,0.0,0.0,0.0,0.0,0.0,0.0,0.0,0.0,1676478171.730615,0.0
76,76.0,27906.823504784526,42555.776841137034,-36285.50902432311,-31807.91816805818,186021.6109182371,9133.95096468341,-29720.82402954388,-9239.026515367808,-0.052000000000000005,0.978,0.084,192.0,0.0,0.0,0.0,0.0,0.0,0.0,0.0,0.0,0.0,1676478171.730642,0.0
77,77.0,27971.151825326902,42584.297667062005,-36144.961255188144,-31742.76283297096,186145.50663775287,9238.601832223158,-29363.710208381442,-8865.841789942002,-0.05,0.978,0.088,192.0,254.0,112.0,30.0,144.0,2.0,192.0,0.0,0.0,0.0,1676478171.79115,0.0
78,78.0,28116.32640556412,42708.9309941448,-36035.99650096852,-31707.89411162068,186220.0497055113,9327.360609455181,-28859.365446491895,-8192.406081248055,-0.05,0.978,0.088,192.0,0.0,0.0,0.0,0.0,0.0,0.0,0.0,0.0,0.0,1676478171.791163,0.0
79,79.0,28068.761893363226,42701.51021498564,-36167.35770313236,-31776.89394675421,186113.43188445948,9216.652419168046,-29152.396816300967,-8480.832991699337,-0.05,0.978,0.088,192.0,0.0,0.0,0.0,0.0,0.0,0.0,0.0,0.0,0.0,1676478171.791171,0.0
80,80.0,27922.626188114427,42580.40846352679,-36281.19513764323,-31810.756839604004,186055.3620523646,9131.715790237879,-29686.715267505082,-9194.635950879569,-0.05,0.978,0.088,192.0,0.0,0.0,0.0,0.0,0.0,0.0,0.0,0.0,0.0,1676478171.791177,0.0
81,81.0,27957.87488912045,42581.88367866084,-36164.69784554218,-31746.361463828263,186163.2986263393,9226.218965794917,-29451.21728792397,-8974.001881361233,-0.05,0.978,0.088,192.0,0.0,0.0,0.0,0.0,0.0,0.0,0.0,0.0,0.0,1676478171.791184,0.0
82,82.0,28107.31865254863,42701.487863241186,-36029.22392239856,-31695.734762636992,186283.4169010421,9328.27703097785,-28887.506292761125,-8253.269881399856,-0.05,0.978,0.088,192.0,0.0,0.0,0.0,0.0,0.0,0.0,0.0,0.0,0.0,1676478171.79119,1.0
83,83.0,28099.450838500365,42723.8843111854,-36128.51037126903,-31751.725882497536,186186.03035045034,9261.847646456677,-29036.860649211485,-8341.93925165406,-0.05,0.978,0.088,192.0,0.0,0.0,0.0,0.0,0.0,0.0,0.0,0.0,0.0,1676478171.791197,1.0
84,84.0,27940.373473211945,42594.82533870046,-36281.03867543205,-31808.14168550273,186061.03939545626,9145.685630522446,-29641.698854172097,-9118.885888920533,-0.05,0.978,0.088,192.0,0.0,0.0,0.0,0.0,0.0,0.0,0.0,0.0,0.0,1676478171.791203,1.0
85,85.0,27939.81467960056,42569.59021921042,-36200.5947471374,-31756.844431977803,186141.55037898428,9200.20153524894,-29549.02852166039,-9079.725632634834,-0.05,0.978,0.088,192.0,0.0,0.0,0.0,0.0,0.0,0.0,0.0,0.0,0.0,1676478171.79121,1.0
86,86.0,28085.972736593812,42684.74640664416,-36041.427974871156,-31697.500550448964,186271.7716421809,9321.37034194116,-28963.613982631447,-8362.011118174925,-0.042,0.974,0.08600000000000001,192.0,254.0,176.0,30.0,112.0,2.0,176.0,0.0,0.0,0.0,1676478171.791223,1.0
87,87.0,28125.065937646144,42740.5363608046,-36092.27819350698,-31736.70551022357,186237.5064179309,9284.020576956342,-28941.351645153958,-8232.929793945526,-0.042,0.974,0.08600000000000001,192.0,0.0,0.0,0.0,0.0,0.0,0.0,0.0,0.0,0.0,1676478171.791229,1.0
88,88.0,27974.72810443975,42621.89330123583,-36260.29625657752,-31806.9570430466,186119.3774484846,9140.723543253367,-29556.762225241928,-9015.821995237113,-0.042,0.974,0.08600000000000001,192.0,0.0,0.0,0.0,0.0,0.0,0.0,0.0,0.0,0.0,1676478171.791236,1.0
89,89.0,27934.33850220901,42564.56107670797,-36213.826979854945,-31772.982391474536,186158.7388704704,9177.559218115714,-29606.114876999247,-9154.648680049024,-0.042,0.974,0.08600000000000001,192.0,0.0,0.0,0.0,0.0,0.0,0.0,0.0,0.0,0.0,1676478171.791242,1.0
90,90.0,28069.723018374803,42664.16045000082,-36044.154887694705,-31707.581187198306,186287.8648981887,9303.556001610279,-29035.94422768882,-8477.212009097579,-0.042,0.974,0.08600000000000001,192.0,0.0,0.0,0.0,0.0,0.0,0.0,0.0,0.0,0.0,1676478171.791249,1.0
91,91.0,28143.170850654944,42744.89495097339,-36054.12376572177,-31730.111745609254,186270.67640670258,9300.873792275643,-28866.920336117786,-8162.342984955667,-0.042,0.974,0.08600000000000001,192.0,0.0,0.0,0.0,0.0,0.0,0.0,0.0,0.0,0.0,1676478171.791255,1.0
92,92.0,28006.378174588466,42644.647377091336,-36228.64618642881,-31805.9065110572,186146.5348179978,9161.376555130071,-29458.950991505506,-8896.642493801415,-0.042,0.974,0.08600000000000001,192.0,0.0,0.0,0.0,0.0,0.0,0.0,0.0,0.0,0.0,1676478171.850798,1.0
93,93.0,27927.923551550335,42564.158745307774,-36222.65591891479,-31783.644173579716,186176.26263812336,9166.763325543801,-29650.281924042934,-9208.091701041663,-0.042,0.974,0.08600000000000001,192.0,0.0,0.0,0.0,0.0,0.0,0.0,0.0,0.0,0.0,1676478171.85081,0.0
94,94.0,28051.41693966591,42647.26253119261,-36058.43765240165,-31714.309062279353,186318.24091890347,9290.949617737488,-29132.81668815812,-8606.360388560342,-0.042,0.974,0.08600000000000001,192.0,0.0,0.0,0.0,0.0,0.0,0.0,0.0,0.0,0.0,1676478171.850817,0.0
95,95.0,28148.691731535404,42743.86677072845,-36031.146172421715,-31716.678347191617,186319.13498868168,9320.051589018296,-28832.386890934336,-8131.318763651701,-0.042,0.974,0.08600000000000001,192.0,0.0,0.0,0.0,0.0,0.0,0.0,0.0,0.0,0.0,1676478171.850823,0.0
96,96.0,28021.68911954035,42662.30525521103,-36212.30706123198,-31803.20194997811,186173.91570495555,9171.993633746342,-29364.20194675946,-8757.25701537812,-0.036000000000000004,0.988,0.092,192.0,254.0,224.0,30.0,224.0,2.0,224.0,0.0,0.0,0.0,1676478171.850829,0.0
97,97.0,27916.01007175566,42562.28119877353,-36246.393471526324,-31796.451723152608,186190.03131270784,9140.231804875351,-29692.750238508015,-9231.762198419834,-0.036000000000000004,0.988,0.092,192.0,0.0,0.0,0.0,0.0,0.0,0.0,0.0,0.0,0.0,1676478171.850835,0.0
98,98.0,28012.413145591396,42617.1100279224,-36086.26557424851,-31720.679309449115,186339.85505579176,9267.726155248423,-29236.484078941834,-8729.272631320075,-0.036000000000000004,0.988,0.092,192.0,0.0,0.0,0.0,0.0,0.0,0.0,0.0,0.0,0.0,1676478171.850841,0.0
99,99.0,28135.057167417668,42729.31578508804,-36013.957680935586,-31701.188588284087,186388.76067265996,9336.010734559386,-28810.88451276833,-8120.70168503543,-0.036000000000000004,0.988,0.092,192.0,0.0,0.0,0.0,0.0,0.0,0.0,0.0,0.0,0.0,1676478171.850847,0.0
100,100.0,28052.0204367662,42687.54037470107,-36178.287706171,-31781.587813089827,186251.67742391556,9208.114052786119,-29234.047738796206,-8584.165106316223,-0.036000000000000004,0.988,0.092,192.0,0.0,0.0,0.0,0.0,0.0,0.0,0.0,0.0,0.0,1676478171.850853,0.0
101,101.0,27930.71751960725,42581.90603040529,-36252.22727682916,-31792.428409150652,186211.57839436276,9136.633174018047,-29687.72109600557,-9215.937163345476,-0.036000000000000004,0.988,0.092,192.0,0.0,0.0,0.0,0.0,0.0,0.0,0.0,0.0,0.0,1676478171.850859,0.0
102,102.0,27991.894244181425,42604.39188532733,-36115.30049029595,-31733.08452762181,186352.34968094228,9243.854492170154,-29342.386644171078,-8865.528865519627,-0.036000000000000004,0.988,0.092,192.0,0.0,0.0,0.0,0.0,0.0,0.0,0.0,0.0,0.0,1676478171.850865,0.0
103,103.0,28127.41287081395,42717.71522971574,-36010.94019543412,-31708.27409127642,186423.3611730768,9323.002019286398,-28842.51223117259,-8190.975569602915,-0.036000000000000004,0.988,0.092,192.0,0.0,0.0,0.0,0.0,0.0,0.0,0.0,0.0,0.0,1676478171.850871,0.0
104,104.0,28081.21181502483,42706.11467434343,-36142.05552840895,-31781.520757856462,186304.51694780792,9209.186936519973,-29129.32981602309,-8470.52883750544,-0.036000000000000004,0.988,0.092,192.0,0.0,0.0,0.0,0.0,0.0,0.0,0.0,0.0,0.0,1676478171.850877,0.0
105,105.0,27934.562019653564,42581.369588538364,-36252.98723614064,-31816.858865840302,186224.29653695782,9119.33292380964,-29666.844566684314,-9198.234581736873,-0.036000000000000004,0.988,0.092,192.0,0.0,0.0,0.0,0.0,0.0,0.0,0.0,0.0,0.0,1676478171.850883,0.0
106,106.0,27966.90499388039,42582.93421065024,-36134.92532192771,-31760.018379690457,186321.97366022752,9205.476546940392,-29444.556468076287,-9006.322503843607,-0.016,0.984,0.096,192.0,255.0,128.0,30.0,192.0,3.0,0.0,0.0,0.0,0.0,1676478171.850889,0.0
107,107.0,28111.297263061675,42700.68320044079,-35993.192910336606,-31719.89699839318,186441.57784480785,9309.345103424204,-28885.89696716034,-8301.504945934408,-0.016,0.984,0.096,192.0,0.0,0.0,0.0,0.0,0.0,0.0,0.0,0.0,0.0,1676478171.915573,0.0
108,108.0,28101.79777166817,42718.8328169385,-36085.393856214745,-31779.352638644297,186369.18054451712,9238.244204311874,-29019.78391644763,-8374.259874136433,-0.016,0.984,0.096,192.0,0.0,0.0,0.0,0.0,0.0,0.0,0.0,0.0,0.0,1676478171.915586,0.0
109,109.0,27944.10621453598,42591.83020494344,-36227.57330269495,-31835.276703271476,186259.88051413067,9117.9024121645,-29615.56966490384,-9151.295918380729,-0.016,0.984,0.096,192.0,0.0,0.0,0.0,0.0,0.0,0.0,0.0,0.0,0.0,1676478171.915593,0.0
110,110.0,27941.42400520134,42563.890524374314,-36142.74843248707,-31783.264193923977,186342.1349337262,9185.605846119624,-29533.516411008408,-9128.09480763612,-0.016,0.984,0.096,192.0,0.0,0.0,0.0,0.0,0.0,0.0,0.0,0.0,0.0,1676478171.915599,0.0
111,111.0,28073.813387610127,42665.322740712494,-35999.87608192874,-31734.649149733683,186460.08508921685,9292.625998571635,-28965.178604743316,-8431.3909329642,-0.016,0.984,0.096,192.0,0.0,0.0,0.0,0.0,0.0,0.0,0.0,0.0,0.0,1676478171.915605,0.0
112,112.0,28113.107754362554,42724.64427049688,-36055.062538988896,-31770.90367924019,186397.5449082309,9265.31216684725,-28947.923058023818,-8301.527297678864,-0.016,0.984,0.096,192.0,0.0,0.0,0.0,0.0,0.0,0.0,0.0,0.0,0.0,1676478171.915611,0.0
113,113.0,27960.668857177363,42605.420065572274,-36224.17583753775,-31840.417604496197,186259.43347924156,9115.778996441246,-29559.556193298842,-9076.79755411119,-0.016,0.984,0.096,192.0,0.0,0.0,0.0,0.0,0.0,0.0,0.0,0.0,0.0,1676478171.915617,0.0
114,114.0,27919.496943890685,42550.01009106757,-36174.10792995786,-31800.13976098773,186347.56640762882,9146.28912762274,-29611.747516601983,-9226.889518128577,-0.016,0.984,0.096,192.0,0.0,0.0,0.0,0.0,0.0,0.0,0.0,0.0,0.0,1676478171.915623,0.0
115,115.0,28053.093320500055,42647.75426957062,-36014.449419313605,-31730.111745609254,186485.275505218,9275.191637896496,-29055.233783153748,-8556.471294936096,-0.016,0.984,0.096,192.0,0.0,0.0,0.0,0.0,0.0,0.0,0.0,0.0,0.0,1676478171.915629,0.0
116,116.0,28123.255446345265,42727.617052509435,-36033.22488465606,-31751.301199352885,186448.32807163335,9274.811658240755,-28888.266252072604,-8231.72279974494,-0.02,0.972,0.108,192.0,255.0,96.0,30.0,96.0,3.0,96.0,0.0,0.0,0.0,1676478171.915636,0.0
117,117.0,27980.29368880912,42625.58133907096,-36215.39160196681,-31834.583799193362,186301.70062800654,9123.780920956246,-29477.145311492124,-8949.459665949305,-0.02,0.972,0.108,192.0,0.0,0.0,0.0,0.0,0.0,0.0,0.0,0.0,0.0,1676478171.915642,0.0
118,118.0,27896.496998846174,42534.94501530469,-36224.22054102666,-31825.285473499953,186327.31572715234,9116.963638897376,-29687.83285472785,-9282.701824033478,-0.02,0.972,0.108,192.0,0.0,0.0,0.0,0.0,0.0,0.0,0.0,0.0,0.0,1676478171.915648,0.0
119,119.0,28021.44325035134,42612.684382520245,-36062.818594314886,-31752.508193553473,186492.7633396105,9241.038172368786,-29177.63193579101,-8700.908267606292,-0.02,0.972,0.108,192.0,0.0,0.0,0.0,0.0,0.0,0.0,0.0,0.0,0.0,1676478171.915654,0.0
120,120.0,28126.161173124456,42714.11659885843,-36031.16852416617,-31747.076719650835,186521.35122076885,9292.424832871537,-28863.34405700494,-8220.792796706295,-0.02,0.972,0.108,192.0,0.0,0.0,0.0,0.0,0.0,0.0,0.0,0.0,0.0,1676478171.91566,0.0
121,121.0,28012.457849080307,42642.07692647898,-36205.17685475074,-31822.82678160987,186371.5498294294,9159.610767318103,-29374.70726665345,-8810.767091604124,-0.02,0.972,0.108,192.0,0.0,0.0,0.0,0.0,0.0,0.0,0.0,0.0,0.0,1676478171.915666,0.0
122,122.0,27902.57667333802,42537.62722463933,-36252.71901520718,-31824.2125897661,186343.5207418824,9114.102615607097,-29713.716174807094,-9287.641559558102,-0.02,0.972,0.108,192.0,0.0,0.0,0.0,0.0,0.0,0.0,0.0,0.0,0.0,1676478171.972101,0.0
123,123.0,28001.170218130377,42597.97693466866,-36098.961365099116,-31750.831812719323,186482.07920576088,9236.612526966635,-29280.5617190077,-8818.567850419027,-0.02,0.972,0.108,192.0,0.0,0.0,0.0,0.0,0.0,0.0,0.0,0.0,0.0,1676478171.972113,0.0
124,124.0,28135.124222651033,42722.096171628975,-36014.27060535796,-31721.103992593766,186543.4794477796,9311.110891236174,-28847.13904227484,-8218.423511794033,-0.02,0.972,0.108,192.0,0.0,0.0,0.0,0.0,0.0,0.0,0.0,0.0,0.0,1676478171.97212,0.0
125,125.0,28070.639439897473,42700.34792427396,-36153.36551110334,-31780.42552237815,186446.74109777703,9195.954703802432,-29236.864058597574,-8642.61491806685,-0.02,0.972,0.108,192.0,0.0,0.0,0.0,0.0,0.0,0.0,0.0,0.0,0.0,1676478171.972127,0.0
126,126.0,27949.582391927528,42590.310286320484,-36233.675328931255,-31790.707324827592,186392.67222793965,9134.532110039248,-29687.72109600557,-9247.676640472013,-0.034,0.9580000000000001,0.10200000000000001,192.0,254.0,240.0,29.0,240.0,3.0,48.0,0.0,0.0,0.0,1676478171.972133,0.0
127,127.0,28006.266415866186,42615.59010929944,-36099.49780696604,-31722.825076916826,186513.0810753204,9236.076085099709,-29354.791862343773,-8908.33245615154,-0.034,0.9580000000000001,0.10200000000000001,192.0,0.0,0.0,0.0,0.0,0.0,0.0,0.0,0.0,0.0,1676478171.972139,0.0
128,128.0,28143.059091932668,42733.20498862326,-35992.52235800295,-31690.79502711237,186599.20234670668,9319.179870984539,-28842.154603261308,-8245.53617781832,-0.034,0.9580000000000001,0.10200000000000001,192.0,0.0,0.0,0.0,0.0,0.0,0.0,0.0,0.0,0.0,1676478171.972152,0.0
129,129.0,28100.858998401047,42720.285680328096,-36126.83399043488,-31763.102920425288,186487.98006629708,9214.685465655979,-29117.95277809534,-8509.286762390944,-0.034,0.9580000000000001,0.10200000000000001,192.0,0.0,0.0,0.0,0.0,0.0,0.0,0.0,0.0,0.0,1676478171.972158,0.0
130,130.0,27955.48325246373,42596.18879511223,-36253.63543672984,-31793.121313228767,186394.7956436629,9125.122025623563,-29669.973810908057,-9212.53969818827,-0.034,0.9580000000000001,0.10200000000000001,192.0,0.0,0.0,0.0,0.0,0.0,0.0,0.0,0.0,0.0,1676478171.972164,0.0
131,131.0,27985.144017355924,42599.42979805825,-36146.05649066645,-31723.316815294842,186494.3726652113,9216.607715679136,-29461.297924673312,-9023.041608696176,-0.034,0.9580000000000001,0.10200000000000001,192.0,0.0,0.0,0.0,0.0,0.0,0.0,0.0,0.0,0.0,1676478171.97217,0.0
132,132.0,28136.33121685162,42722.4314477958,-36004.569948264354,-31664.68818958857,186597.32480017244,9340.07875205025,-28894.703554475735,-8318.40286474262,-0.034,0.9580000000000001,0.10200000000000001,192.0,0.0,0.0,0.0,0.0,0.0,0.0,0.0,0.0,0.0,1676478171.972176,0.0
133,133.0,28128.41869931444,42739.84345672649,-36113.355888528335,-31723.920312395134,186488.0694732749,9269.022556426831,-29026.020053150663,-8375.489220081476,-0.034,0.9580000000000001,0.10200000000000001,192.0,0.0,0.0,0.0,0.0,0.0,0.0,0.0,0.0,0.0,1676478171.972182,0.0
134,134.0,27981.210110331787,42623.30146113652,-36263.671369990276,-31768.10971118328,186393.49924248448,9151.43002884746,-29626.991406320503,-9122.149243611007,-0.034,0.9580000000000001,0.10200000000000001,192.0,0.0,0.0,0.0,0.0,0.0,0.0,0.0,0.0,0.0,1676478171.972188,0.0
135,135.0,27976.717409696274,42599.02746665805,-36192.570470877945,-31714.823152401827,186489.7235023646,9213.433767966482,-29547.93328618208,-9097.338807265616,-0.034,0.9580000000000001,0.10200000000000001,192.0,0.0,0.0,0.0,0.0,0.0,0.0,0.0,0.0,0.0,1676478171.972195,0.0
136,136.0,28130.206838870865,42718.72105821622,-36041.69619580462,-31649.757224292425,186631.4112104668,9344.236176518938,-28952.013427259142,-8416.035284523403,-0.09,0.9480000000000001,0.076,192.0,253.0,48.0,29.0,160.0,2.0,96.0,0.0,0.0,0.0,1676478171.972201,0.0
137,137.0,28173.546871369705,42777.77436706715,-36099.944841855155,-31681.831977585793,186580.11395694184,9307.065225489763,-28905.342984836458,-8279.734346834939,-0.09,0.9480000000000001,0.076,192.0,0.0,0.0,0.0,0.0,0.0,0.0,0.0,0.0,0.0,1676478172.032401,0.0
138,138.0,28029.869858010992,42670.01660704811,-36279.27288762008,-31742.315798081854,186442.24839714152,9181.850753051132,-29523.5698847258,-9017.40896909344,-0.09,0.9480000000000001,0.076,192.0,0.0,0.0,0.0,0.0,0.0,0.0,0.0,0.0,0.0,1676478172.032414,0.0
139,139.0,27994.755267471704,42619.70283027922,-36239.822058656464,-31694.32660273631,186502.70986589312,9225.704875672445,-29590.312193669346,-9162.583549330659,-0.09,0.9480000000000001,0.076,192.0,0.0,0.0,0.0,0.0,0.0,0.0,0.0,0.0,0.0,1676478172.03242,0.0
140,140.0,28134.297208106185,42722.27498558462,-36068.87591706227,-31620.051755911325,186649.3149577755,9346.247833519916,-29004.36121277347,-8531.124416723778,-0.09,0.9480000000000001,0.076,192.0,0.0,0.0,0.0,0.0,0.0,0.0,0.0,0.0,0.0,1676478172.032427,0.0
141,141.0,28219.14443005853,42814.52063495167,-36066.52898389447,-31629.215971138,186625.17507376376,9350.829941133254,-28785.60468978938,-8214.020218136337,-0.09,0.9480000000000001,0.076,192.0,0.0,0.0,0.0,0.0,0.0,0.0,0.0,0.0,0.0,1676478172.032433,0.0
142,142.0,28102.244806557275,42734.8366659685,-36235.68698593223,-31692.136131779687,186486.84012732987,9222.776797148801,-29363.24082174788,-8886.293636118608,-0.09,0.9480000000000001,0.076,192.0,0.0,0.0,0.0,0.0,0.0,0.0,0.0,0.0,0.0,1676478172.032439,0.0
143,143.0,28025.533619586662,42657.58903713096,-36230.43432598523,-31668.197413468053,186521.08299983537,9227.8282913957,-29578.778693530407,-9200.603866649135,-0.09,0.9480000000000001,0.076,192.0,0.0,0.0,0.0,0.0,0.0,0.0,0.0,0.0,0.0,1676478172.032445,0.0
144,144.0,28146.881240234525,42738.6364625259,-36049.20638194161,-31592.313241042288,186667.24105682864,9356.484932480447,-29039.31934110157,-8658.171732207744,-0.09,0.9480000000000001,0.076,192.0,0.0,0.0,0.0,0.0,0.0,0.0,0.0,0.0,0.0,1676478172.032451,0.0
145,145.0,28270.911070217022,42855.24551334924,-35988.27552655644,-31578.276345524355,186670.57146675247,9406.91046797162,-28674.494168102046,-8194.417738249032,-0.09,0.9480000000000001,0.076,192.0,0.0,0.0,0.0,0.0,0.0,0.0,0.0,0.0,0.0,1676478172.032457,0.0
146,146.0,28167.891880022515,42796.415721942874,-36146.145897644274,-31648.729044047483,186543.9264826687,9280.868980988143,-29177.363714857547,-8756.899387466836,-0.108,0.98,0.058,192.0,252.0,160.0,30.0,160.0,1.0,208.0,0.0,0.0,0.0,1676478172.032464,0.0
147,147.0,28058.524794402696,42697.33043877249,-36178.26535442655,-31644.839840512257,186543.59120650188,9264.060469157752,-29538.478498277487,-9219.334628502684,-0.108,0.98,0.058,192.0,0.0,0.0,0.0,0.0,0.0,0.0,0.0,0.0,0.0,1676478172.03247,0.0
148,148.0,28155.86664150556,42751.75693652117,-36006.402791309694,-31570.564993687272,186692.02914142958,9374.52279025588,-29094.639908628455,-8784.056756980033,-0.108,0.98,0.058,192.0,0.0,0.0,0.0,0.0,0.0,0.0,0.0,0.0,0.0,1676478172.032476,0.0
149,149.0,28300.12480022011,42880.63709505047,-35894.97934519999,-31536.702100837483,186749.1825520018,9455.503160417456,-28617.89955114121,-8216.970648404438,-0.108,0.98,0.058,192.0,0.0,0.0,0.0,0.0,0.0,0.0,0.0,0.0,0.0,1676478172.032482,0.0
150,150.0,28235.863534911103,42854.28438833766,-36027.435782842134,-31601.857435924703,186629.82423661047,9352.528673711859,-29004.4953232402,-8616.351618331864,-0.108,0.98,0.058,192.0,0.0,0.0,0.0,0.0,0.0,0.0,0.0,0.0,0.0,1676478172.032495,0.0
151,151.0,28117.287530575697,42748.85120974198,-36096.63678367576,-31612.83214245226,186582.05855870945,9292.134260193618,-29492.433904699556,-9203.420186450505,-0.108,0.98,0.058,192.0,0.0,0.0,0.0,0.0,0.0,0.0,0.0,0.0,0.0,1676478172.032501,0.0
152,152.0,28182.264051707276,42778.17669846734,-35945.60604639126,-31546.268647464356,186713.6209265734,9388.447927051537,-29169.562956042646,-8906.164336939375,-0.108,0.98,0.058,192.0,0.0,0.0,0.0,0.0,0.0,0.0,0.0,0.0,0.0,1676478172.090556,0.0
153,153.0,28331.573704668728,42904.419351150915,-35809.260405213885,-31504.1356091661,186827.97245120676,9464.82383785532,-28622.213437821083,-8278.72851833445,-0.108,0.98,0.058,192.0,0.0,0.0,0.0,0.0,0.0,0.0,0.0,0.0,0.0,1676478172.09058,0.0
154,154.0,28298.359012408142,42907.05685699664,-35922.717860069024,-31560.082025537733,186721.15346445484,9379.417822291593,-28876.129254833373,-8501.06132043139,-0.108,0.98,0.058,192.0,0.0,0.0,0.0,0.0,0.0,0.0,0.0,0.0,0.0,1676478172.090595,0.0
155,155.0,28152.983266470823,42789.41962592836,-36044.13253595025,-31599.577557990262,186638.18378903673,9283.662949045056,-29453.363055391677,-9181.694290839945,-0.08,0.996,0.044,192.0,253.0,128.0,31.0,32.0,1.0,96.0,0.0,0.0,0.0,1676478172.090608,0.0
156,156.0,28172.988077758324,42787.34091369402,-35933.20082821856,-31546.268647464356,186756.55862767206,9363.771601172877,-29276.02431488327,-9037.391428636483,-0.08,0.996,0.044,192.0,0.0,0.0,0.0,0.0,0.0,0.0,0.0,0.0,0.0,1676478172.090621,0.0
157,157.0,28318.40852718455,42902.56415636113,-35788.54033810381,-31497.720658507427,186868.54086739314,9461.895759331675,-28712.469781931613,-8387.581513831796,-0.08,0.996,0.044,192.0,0.0,0.0,0.0,0.0,0.0,0.0,0.0,0.0,0.0,1676478172.090634,0.0
158,158.0,28321.09073651919,42932.1355142755,-35873.58872575626,-31543.407624174077,186779.87149713893,9407.111633671717,-28820.540466373026,-8423.05373228237,-0.08,0.996,0.044,192.0,0.0,0.0,0.0,0.0,0.0,0.0,0.0,0.0,0.0,1676478172.090647,0.0
159,159.0,28160.51580435226,42804.864681346975,-36032.487277089036,-31602.125656858167,186659.68616720274,9289.787327025811,-29446.948104733005,-9146.177368900462,-0.08,0.996,0.044,192.0,0.0,0.0,0.0,0.0,0.0,0.0,0.0,0.0,0.0,1676478172.09066,0.0
160,160.0,28120.863809688548,42746.39251785189,-35985.50391024398,-31580.86914788117,186732.59755761595,9295.710539306467,-29428.3961568351,-9184.91294204151,-0.08,0.996,0.044,192.0,0.0,0.0,0.0,0.0,0.0,0.0,0.0,0.0,0.0,1676478172.090673,0.0
161,161.0,28240.93738090246,42831.507960737705,-35849.53824872235,-31538.2443712049,186871.78187033915,9393.678235254078,-28864.014609338596,-8570.1729142872,-0.08,0.996,0.044,192.0,0.0,0.0,0.0,0.0,0.0,0.0,0.0,0.0,0.0,1676478172.090686,0.0
162,162.0,28283.07041920071,42885.59918231954,-35896.54396731186,-31570.028551820345,186828.41948609587,9368.37606053067,-28814.773716303556,-8428.529909673918,-0.08,0.996,0.044,192.0,0.0,0.0,0.0,0.0,0.0,0.0,0.0,0.0,0.0,1676478172.090698,0.0
163,163.0,28132.151440638478,42771.15825070837,-36069.390007184746,-31640.97298872149,186686.93294369377,9248.347192805672,-29436.420433094554,-9128.586546014136,-0.08,0.996,0.044,192.0,0.0,0.0,0.0,0.0,0.0,0.0,0.0,0.0,0.0,1676478172.090711,0.0
164,164.0,28071.80173060915,42699.34209577347,-36051.17333545367,-31629.014805437902,186719.29826966504,9250.381201551105,-29548.022693159903,-9320.230402973939,-0.08,0.996,0.044,192.0,0.0,0.0,0.0,0.0,0.0,0.0,0.0,0.0,0.0,1676478172.090724,0.0
165,165.0,28197.57499665916,42781.46240490227,-35896.991002200964,-31577.67284842406,186879.04618728714,9350.85229287771,-29005.679965696334,-8763.247282892142,-0.076,1.012,0.052000000000000005,192.0,253.0,160.0,31.0,160.0,1.0,160.0,0.0,0.0,0.0,1676478172.090737,0.0
166,166.0,28274.01796269631,42853.613836004,-35903.33889762627,-31598.951709145513,186873.4582511733,9344.951432341508,-28803.93312024273,-8462.236340312522,-0.076,1.012,0.052000000000000005,192.0,0.0,0.0,0.0,0.0,0.0,0.0,0.0,0.0,0.0,1676478172.09075,0.0
167,167.0,28121.75787946676,42750.974625465235,-36089.70774289462,-31681.519053163418,186714.35853414043,9221.793320392766,-29383.20092954647,-9089.672158917447,-0.076,1.012,0.052000000000000005,192.0,0.0,0.0,0.0,0.0,0.0,0.0,0.0,0.0,0.0,1676478172.150881,0.0
168,168.0,28021.39854686243,42657.72314759769,-36110.0254786045,-31679.172119995612,186719.7229528097,9220.675733170001,-29621.917560329148,-9412.587811063268,-0.076,1.012,0.052000000000000005,192.0,0.0,0.0,0.0,0.0,0.0,0.0,0.0,0.0,0.0,1676478172.150898,0.0
169,169.0,28132.553772038675,42727.326479831514,-35956.44664245208,-31620.431735567065,186864.94223653583,9301.007902742374,-29130.96149336833,-8913.853337032002,-0.076,1.012,0.052000000000000005,192.0,0.0,0.0,0.0,0.0,0.0,0.0,0.0,0.0,0.0,1676478172.150908,0.0
170,170.0,28241.943209402947,42829.58571071455,-35919.58861584528,-31622.488096056954,186885.14821352344,9325.974801298953,-28798.926329484744,-8468.919511904658,-0.076,1.012,0.052000000000000005,192.0,0.0,0.0,0.0,0.0,0.0,0.0,0.0,0.0,0.0,1676478172.150917,0.0
171,171.0,28138.052301174677,42766.017349483656,-36090.44535046165,-31699.735724894494,186740.46537166424,9201.475584682892,-29282.953355664416,-8977.131125584976,-0.076,1.012,0.052000000000000005,192.0,0.0,0.0,0.0,0.0,0.0,0.0,0.0,0.0,0.0,1676478172.150934,0.0
172,172.0,28023.49961084123,42650.235313205165,-36159.422833850724,-31719.31585303734,186701.88626073438,9158.426124861971,-29660.80959568138,-9442.807369566843,-0.076,1.012,0.052000000000000005,192.0,0.0,0.0,0.0,0.0,0.0,0.0,0.0,0.0,0.0,1676478172.150943,0.0
173,173.0,28103.027117613212,42689.7755491466,-36022.22782638405,-31663.391788410165,186829.98410820772,9255.678564987013,-29258.053512341205,-9046.89092002999,-0.076,1.012,0.052000000000000005,192.0,0.0,0.0,0.0,0.0,0.0,0.0,0.0,0.0,0.0,1676478172.150951,0.0
174,174.0,28224.084165583154,42797.890937076925,-35943.08029926781,-31643.901067245137,186882.3542454665,9325.907746065586,-28812.292672669017,-8496.278047117954,-0.076,1.012,0.052000000000000005,192.0,0.0,0.0,0.0,0.0,0.0,0.0,0.0,0.0,0.0,1676478172.15096,0.0
175,175.0,28147.082405934623,42761.27877965913,-36094.28985050796,-31713.571454712328,186743.84048507697,9221.770968648312,-29177.855453235563,-8844.451170498272,-0.058,0.984,0.076,192.0,254.0,48.0,30.0,192.0,2.0,96.0,0.0,0.0,0.0,1676478172.150969,0.0
176,176.0,28011.429668835364,42647.66486259281,-36193.8445203119,-31738.627760246727,186685.92711519328,9149.127799168564,-29653.58998222232,-9404.80940399282,-0.058,0.984,0.076,192.0,0.0,0.0,0.0,0.0,0.0,0.0,0.0,0.0,0.0,1676478172.150977,0.0
177,177.0,28064.31389621662,42666.21681049071,-36068.764158339996,-31686.212919499034,186830.341736119,9226.375428006104,-29354.210716987935,-9136.610822273591,-0.058,0.984,0.076,192.0,0.0,0.0,0.0,0.0,0.0,0.0,0.0,0.0,0.0,1676478172.150986,0.0
178,178.0,28207.074488052665,42782.37882642494,-35951.238685993994,-31647.83497426927,186913.8702051485,9323.337295453226,-28840.880553827355,-8522.1613671972,-0.058,0.984,0.076,192.0,0.0,0.0,0.0,0.0,0.0,0.0,0.0,0.0,0.0,1676478172.150995,0.0
179,179.0,28175.491473137317,42783.80933807008,-36074.910888065206,-31710.442210488585,186795.16009034635,9229.951707118953,-29080.42419915488,-8696.952008837701,-0.058,0.984,0.076,192.0,0.0,0.0,0.0,0.0,0.0,0.0,0.0,0.0,0.0,1676478172.151003,0.0
180,180.0,28014.916540970393,42657.61138887541,-36209.40133445279,-31757.269115122454,186697.93000196578,9139.47184556387,-29637.720243659052,-9334.021429302864,-0.058,0.984,0.076,192.0,0.0,0.0,0.0,0.0,0.0,0.0,0.0,0.0,0.0,1676478172.151012,0.0
181,181.0,28026.53944808715,42639.50647586662,-36113.512350739526,-31714.0855448348,186821.42339008136,9205.208326006928,-29459.532136861344,-9193.205439234429,-0.058,0.984,0.076,192.0,0.0,0.0,0.0,0.0,0.0,0.0,0.0,0.0,0.0,1676478172.151021,0.0
182,182.0,28182.554624385193,42756.9425412348,-35963.64390416669,-31662.944753521057,186952.85164747856,9303.421891143547,-28900.000917911642,-8566.797800874449,-0.058,0.984,0.076,192.0,0.0,0.0,0.0,0.0,0.0,0.0,0.0,0.0,0.0,1676478172.213106,0.0
183,183.0,28200.30190948271,42798.8520620885,-36030.14034392123,-31696.13709403719,186867.15505923692,9260.506541789358,-28972.040590291097,-8555.420762946696,-0.058,0.984,0.076,192.0,0.0,0.0,0.0,0.0,0.0,0.0,0.0,0.0,0.0,1676478172.213123,0.0
184,184.0,28034.9660557468,42672.251781493644,-36189.46357839866,-31754.430443576628,186735.86091230644,9144.545691555226,-29559.33267585429,-9207.39879696355,-0.058,0.984,0.076,192.0,0.0,0.0,0.0,0.0,0.0,0.0,0.0,0.0,0.0,1676478172.213133,0.0
185,185.0,28011.608482791005,42628.88939725034,-36131.393746303766,-31722.579207727817,186807.90058468588,9181.783697817767,-29529.71661445101,-9227.805939651244,-0.032,0.966,0.096,192.0,255.0,0.0,30.0,48.0,3.0,0.0,0.0,0.0,0.0,1676478172.213142,0.0
186,186.0,28150.18929841391,42728.84639845448,-35981.368837519745,-31675.75230309395,186933.60679550254,9285.942826979497,-28972.241755991192,-8624.510005058051,-0.032,0.966,0.096,192.0,0.0,0.0,0.0,0.0,0.0,0.0,0.0,0.0,0.0,1676478172.21315,0.0
187,187.0,28197.262072236786,42791.07365501805,-36022.205474639595,-31703.580224940804,186874.97816979626,9268.419059326538,-28909.16513313832,-8454.033250097424,-0.032,0.966,0.096,192.0,0.0,0.0,0.0,0.0,0.0,0.0,0.0,0.0,0.0,1676478172.213159,0.0
188,188.0,28036.17304994739,42676.56566817351,-36197.6443168693,-31774.81523451987,186745.09218276647,9147.205549145407,-29498.84885535823,-9095.7965368982,-0.032,0.966,0.096,192.0,0.0,0.0,0.0,0.0,0.0,0.0,0.0,0.0,0.0,1676478172.213168,0.0
189,189.0,27975.063380606578,42603.29664984902,-36174.26439216905,-31757.939667456114,186781.36906401743,9168.439706377949,-29600.638699607694,-9266.519161047836,-0.032,0.966,0.096,192.0,0.0,0.0,0.0,0.0,0.0,0.0,0.0,0.0,0.0,1676478172.213176,0.0
190,190.0,28101.060164101145,42685.26049676663,-36013.44359081311,-31704.36253599674,186915.65834470492,9273.716422762445,-29067.348428648525,-8707.39027349833,-0.032,0.966,0.096,192.0,0.0,0.0,0.0,0.0,0.0,0.0,0.0,0.0,0.0,1676478172.213185,0.0
191,191.0,28166.32725791064,42760.496468603196,-36017.77982923744,-31727.653053719172,186893.08308280507,9256.483227787403,-28874.43052225477,-8391.649531322662,-0.032,0.966,0.096,192.0,0.0,0.0,0.0,0.0,0.0,0.0,0.0,0.0,0.0,1676478172.213193,0.0
192,192.0,28030.942741744846,42665.16627850131,-36199.566566892456,-31809.371031447776,186714.98438298516,9134.107426894598,-29434.386424349123,-8974.694785439347,-0.032,0.966,0.096,192.0,0.0,0.0,0.0,0.0,0.0,0.0,0.0,0.0,0.0,1676478172.21321,0.0
193,193.0,27937.62420864394,42571.13248957783,-36218.364383979366,-31806.06297326839,186713.1291881954,9134.219185616874,-29682.49078780303,-9291.731928793422,-0.032,0.966,0.096,192.0,0.0,0.0,0.0,0.0,0.0,0.0,0.0,0.0,0.0,1676478172.213219,0.0
194,194.0,28032.12738420098,42631.88453100736,-36060.53871638045,-31749.848335963292,186863.33291093505,9217.099454057152,-29204.78930530421,-8809.403635192351,-0.032,0.966,0.096,192.0,0.0,0.0,0.0,0.0,0.0,0.0,0.0,0.0,0.0,1676478172.213227,0.0
195,195.0,28128.016367914246,42724.35369781896,-36013.6000530243,-31748.037844662413,186889.88678334796,9247.319012560727,-28871.10011233093,-8366.280301365889,0.004,0.966,0.10200000000000001,192.0,0.0,32.0,30.0,48.0,3.0,48.0,0.0,0.0,0.0,1676478172.213236,0.0
196,196.0,28017.375232860475,42655.17504872978,-36182.981572506615,-31828.168848534686,186747.05913627855,9138.600127530113,-29343.90656279404,-8840.763132663147,0.004,0.966,0.10200000000000001,192.0,0.0,0.0,0.0,0.0,0.0,0.0,0.0,0.0,0.0,1676478172.213245,0.0
197,197.0,27895.960556979247,42542.25403574158,-36247.64516921582,-31843.50214523103,186709.64231606034,9082.050214058187,-29718.924131265183,-9291.463707859959,0.004,0.966,0.10200000000000001,192.0,0.0,0.0,0.0,0.0,0.0,0.0,0.0,0.0,0.0,1676478172.271438,0.0
198,198.0,27967.82141540306,42576.58631522493,-36111.277176293996,-31790.349696916306,186820.95400344778,9162.024755719276,-29337.424556902,-8916.110863221988,0.004,0.966,0.10200000000000001,192.0,0.0,0.0,0.0,0.0,0.0,0.0,0.0,0.0,0.0,1676478172.271455,0.0
199,199.0,28092.342983763574,42680.34311298646,-36033.62721605626,-31776.938650243123,186845.47386711524,9222.843852382166,-28909.276891860594,-8383.871124252215,0.004,0.966,0.10200000000000001,192.0,0.0,0.0,0.0,0.0,0.0,0.0,0.0,0.0,0.0,1676478172.271465,0.0
200,200.0,28019.87862823947,42647.933083526266,-36180.96991550564,-31849.380654022774,186726.85315929094,9133.682743749947,-29271.218689825382,-8713.313485778986,0.004,0.966,0.10200000000000001,192.0,0.0,0.0,0.0,0.0,0.0,0.0,0.0,0.0,0.0,1676478172.271474,0.0
201,201.0,27878.101513159458,42527.92656754572,-36274.66842826229,-31877.812072969926,186669.76680395208,9076.037594799709,-29743.04166353246,-9257.26553884334,0.004,0.966,0.10200000000000001,192.0,0.0,0.0,0.0,0.0,0.0,0.0,0.0,0.0,0.0,1676478172.271483,0.0
202,202.0,27926.515391649653,42540.71176537416,-36150.88446746879,-31824.234941510553,186780.4973459837,9140.544729297726,-29456.648761826607,-8993.53730601517,0.004,0.966,0.10200000000000001,192.0,0.0,0.0,0.0,0.0,0.0,0.0,0.0,0.0,0.0,1676478172.271491,0.0
203,203.0,28061.74344560426,42652.62694986188,-36029.31332937638,-31786.594603847818,186861.83534405654,9218.73113140239,-28939.272932919615,-8388.073252209813,0.004,0.966,0.10200000000000001,192.0,0.0,0.0,0.0,0.0,0.0,0.0,0.0,0.0,0.0,1676478172.2715,0.0
204,204.0,28027.008834720713,42653.7668888291,-36145.8329732219,-31844.15034582023,186751.59654040297,9140.008287430797,-29160.756368727252,-8550.011640788513,0.004,0.966,0.10200000000000001,192.0,0.0,0.0,0.0,0.0,0.0,0.0,0.0,0.0,0.0,1676478172.271509,0.0
205,205.0,27869.406684566344,42525.82550356692,-36283.877346977875,-31890.060828931433,186637.17796053624,9065.666385372448,-29717.06893647539,-9171.747764557334,0.014,0.97,0.094,192.0,0.0,112.0,30.0,80.0,2.0,240.0,0.0,0.0,0.0,1676478172.271517,0.0
206,206.0,27869.361981077433,42501.529157344004,-36201.33235470443,-31848.73245343357,186712.39158062835,9122.70803722239,-29564.85355673475,-9052.165931721442,0.014,0.97,0.094,192.0,0.0,0.0,0.0,0.0,0.0,0.0,0.0,0.0,0.0,1676478172.271526,0.0
207,207.0,28011.273206624177,42608.32579235146,-36065.07612050488,-31799.402153420706,186826.81016049508,9205.96828531841,-29014.955939645286,-8435.436598710608,0.014,0.97,0.094,192.0,0.0,0.0,0.0,0.0,0.0,0.0,0.0,0.0,0.0,1676478172.271535,0.0
208,208.0,28024.416032363897,42645.00500500262,-36145.810621477445,-31840.73052891857,186750.07662178,9160.102505696119,-29088.359068436515,-8419.499804913976,0.014,0.97,0.094,192.0,0.0,0.0,0.0,0.0,0.0,0.0,0.0,0.0,0.0,1676478172.271543,0.0
209,209.0,27869.89842294436,42525.713744844645,-36305.44678037724,-31897.21338715713,186644.28581527303,9061.50896090376,-29675.561747021886,-9068.974443551831,0.014,0.97,0.094,192.0,0.0,0.0,0.0,0.0,0.0,0.0,0.0,0.0,0.0,1676478172.271552,0.0
210,210.0,27849.89361165686,42484.206555391145,-36249.36625353888,-31860.467119272605,186701.573336312,9103.060853846175,-29651.935953132626,-9097.763490410267,0.014,0.97,0.094,192.0,0.0,0.0,0.0,0.0,0.0,0.0,0.0,0.0,0.0,1676478172.271561,0.0
211,211.0,27993.0565348931,42588.83507118643,-36095.318030752904,-31801.838493566334,186815.56723303406,9206.080044040686,-29095.399867939934,-8499.496698319519,0.014,0.97,0.094,192.0,0.0,0.0,0.0,0.0,0.0,0.0,0.0,0.0,0.0,1676478172.271569,0.0
212,212.0,28046.611314608017,42657.27611270858,-36131.0808218814,-31824.659624655204,186769.52263945612,9195.418261935505,-29013.681890211334,-8316.346504252733,0.014,0.97,0.094,192.0,0.0,0.0,0.0,0.0,0.0,0.0,0.0,0.0,0.0,1676478172.271578,0.0
213,213.0,27906.33176640651,42559.196658038694,-36296.595489572945,-31880.44957881565,186642.22945478314,9084.330091992628,-29600.79516181888,-8948.096209537533,0.014,0.97,0.094,192.0,0.0,0.0,0.0,0.0,0.0,0.0,0.0,0.0,0.0,1676478172.332708,0.0
214,214.0,27842.428129008786,42489.01218044903,-36278.26705911959,-31860.802395439438,186664.15651609382,9121.210470343885,-29716.823067286383,-9128.541842525226,0.014,0.97,0.094,192.0,0.0,0.0,0.0,0.0,0.0,0.0,0.0,0.0,0.0,1676478172.332731,0.0
215,215.0,27965.139206068423,42580.92255364926,-36117.17803683019,-31797.502255142008,186803.20671835027,9242.200463080462,-29187.19848241788,-8568.02714681949,0.002,0.974,0.084,192.0,0.0,16.0,30.0,112.0,2.0,160.0,0.0,0.0,0.0,1676478172.332741,0.0
216,216.0,28057.60837288003,42674.64341815036,-36104.90692912423,-31800.072705754366,186823.1444744044,9224.944916360964,-28955.723816838723,-8224.413779308055,0.002,0.974,0.084,192.0,0.0,0.0,0.0,0.0,0.0,0.0,0.0,0.0,0.0,1676478172.332751,0.0
217,217.0,27935.500792920688,42592.411350299284,-36273.97552418417,-31867.77613970949,186669.11860336288,9106.234801558829,-29490.82457909877,-8795.143222229866,0.002,0.974,0.084,192.0,0.0,0.0,0.0,0.0,0.0,0.0,0.0,0.0,0.0,1676478172.332759,0.0
218,218.0,27847.770195933605,42508.726419058614,-36287.63244004636,-31854.700369203136,186664.80471668302,9107.777071926246,-29739.644198375252,-9120.8528424326,0.002,0.974,0.084,192.0,0.0,0.0,0.0,0.0,0.0,0.0,0.0,0.0,0.0,1676478172.332768,0.0
219,219.0,27958.031351331636,42576.09457684691,-36124.263539822525,-31782.90656601269,186806.33596257403,9220.608677936636,-29261.965067620884,-8629.762665005048,0.002,0.974,0.084,192.0,0.0,0.0,0.0,0.0,0.0,0.0,0.0,0.0,0.0,1676478172.332776,0.0
220,220.0,28078.149626034454,42681.50540369814,-36070.61935312979,-31770.47899609554,186842.5457885916,9263.814599968744,-28910.95327269474,-8168.42265944751,0.002,0.974,0.084,192.0,0.0,0.0,0.0,0.0,0.0,0.0,0.0,0.0,0.0,1676478172.332785,0.0
221,221.0,27995.24700584972,42636.82426653198,-36223.617043926366,-31828.48177295706,186717.24190917515,9165.757497043312,-29360.08922577968,-8619.346752088875,0.002,0.974,0.084,192.0,0.0,0.0,0.0,0.0,0.0,0.0,0.0,0.0,0.0,1676478172.332794,0.0
222,222.0,27882.549510306064,42537.7389833616,-36280.47988182067,-31824.34670023283,186679.17688836777,9139.09186590813,-29731.10583199332,-9071.611949397558,0.002,0.974,0.084,192.0,0.0,0.0,0.0,0.0,0.0,0.0,0.0,0.0,0.0,1676478172.332802,0.0
223,223.0,27965.787406657626,42583.78357693954,-36131.03611839248,-31751.122385397244,186813.0414859106,9249.26361432834,-29330.94255100996,-8677.416584183764,0.002,0.974,0.084,192.0,0.0,0.0,0.0,0.0,0.0,0.0,0.0,0.0,0.0,1676478172.332811,0.0
224,224.0,28104.167056580434,42703.94655513127,-36038.2540271585,-31720.522847237928,186904.0130858437,9317.123510494652,-28876.062199600008,-8117.639496045053,-0.018000000000000002,0.97,0.084,192.0,255.0,112.0,30.0,80.0,2.0,160.0,0.0,0.0,0.0,1676478172.33282,0.0
225,225.0,28044.17497446239,42681.46070020923,-36176.25369742557,-31780.80550203389,186782.15137507336,9228.364733262628,-29220.033195022726,-8434.743694632494,-0.018000000000000002,0.97,0.084,192.0,0.0,0.0,0.0,0.0,0.0,0.0,0.0,0.0,0.0,1676478172.332828,0.0
226,226.0,27905.772972795126,42564.82929764144,-36278.7140940087,-31801.52556914396,186714.49264460715,9172.463020379904,-29703.501427591018,-9002.030968908188,-0.018000000000000002,0.97,0.084,192.0,0.0,0.0,0.0,0.0,0.0,0.0,0.0,0.0,0.0,1676478172.332837,0.0
227,227.0,27968.022581103156,42590.42204504276,-36151.62207503582,-31737.264303834952,186850.83828578453,9251.901120174065,-29418.11435438566,-8753.501922309628,-0.018000000000000002,0.97,0.084,192.0,0.0,0.0,0.0,0.0,0.0,0.0,0.0,0.0,0.0,1676478172.332846,0.0
228,228.0,28120.75205096627,42712.104941857455,-36028.754535765,-31694.483064947497,186938.63593800497,9351.209920788995,-28883.728847948176,-8132.32459215219,-0.018000000000000002,0.97,0.084,192.0,0.0,0.0,0.0,0.0,0.0,0.0,0.0,0.0,0.0,1676478172.392882,0.0
229,229.0,28106.603396726063,42725.314822830536,-36138.83687720739,-31744.148641127187,186840.48942810172,9275.258693129861,-29092.672955116388,-8281.701300347007,-0.018000000000000002,0.97,0.084,192.0,0.0,0.0,0.0,0.0,0.0,0.0,0.0,0.0,0.0,1676478172.3929,0.0
230,230.0,27957.025522831147,42606.29178360603,-36275.29427710704,-31786.348734658808,186760.581941674,9197.541677658759,-29655.31106654538,-8928.001991272211,-0.018000000000000002,0.97,0.084,192.0,0.0,0.0,0.0,0.0,0.0,0.0,0.0,0.0,0.0,1676478172.39291,0.0
231,231.0,27970.324810782055,42592.277239832554,-36188.05541849797,-31736.772565456937,186856.51562887616,9248.526006761314,-29509.287120018857,-8826.681533656303,-0.018000000000000002,0.97,0.084,192.0,0.0,0.0,0.0,0.0,0.0,0.0,0.0,0.0,0.0,1676478172.392919,0.0
232,232.0,28123.076632389624,42712.663735468836,-36038.74576553652,-31674.12062574871,186979.383168147,9347.544234698324,-28940.63638933139,-8177.028081062804,-0.018000000000000002,0.97,0.084,192.0,0.0,0.0,0.0,0.0,0.0,0.0,0.0,0.0,0.0,1676478172.392927,0.0
233,233.0,28141.963856454357,42758.171887179844,-36108.84083614837,-31709.95047211057,186918.78758892865,9307.51226037887,-28993.766485901655,-8139.432446888977,-0.018000000000000002,0.97,0.084,192.0,0.0,0.0,0.0,0.0,0.0,0.0,0.0,0.0,0.0,1676478172.392936,0.0
234,234.0,27988.07209587957,42645.98848175866,-36271.427425316266,-31762.410016347174,186790.93561064432,9207.890535341565,-29593.32967917081,-8821.384170220395,-0.042,0.962,0.082,192.0,254.0,176.0,30.0,16.0,2.0,144.0,0.0,0.0,0.0,1676478172.392945,0.0
235,235.0,27961.16059555538,42598.491024791125,-36221.33716599192,-31729.32943455332,186838.2542536562,9254.426867297516,-29583.71842905503,-8876.36946158045,-0.042,0.962,0.082,192.0,0.0,0.0,0.0,0.0,0.0,0.0,0.0,0.0,0.0,1676478172.392962,0.0
236,236.0,28108.458591515853,42705.93586038779,-36055.44251864464,-31665.671666344606,187001.08671201312,9357.960147614498,-29007.378698274937,-8253.381640122132,-0.042,0.962,0.082,192.0,0.0,0.0,0.0,0.0,0.0,0.0,0.0,0.0,0.0,1676478172.392971,0.0
237,237.0,28164.896746265502,42775.51684087716,-36083.33749572486,-31689.61038465624,186989.06147349614,9348.080676565252,-28902.660775501823,-8047.522073688755,-0.042,0.962,0.082,192.0,0.0,0.0,0.0,0.0,0.0,0.0,0.0,0.0,0.0,1676478172.392979,0.0
238,238.0,28020.459773595307,42673.01174080512,-36261.59265775593,-31755.61508603276,186841.11527694648,9222.30741051524,-29499.69822164753,-8706.831479886947,-0.042,0.962,0.082,192.0,0.0,0.0,0.0,0.0,0.0,0.0,0.0,0.0,0.0,1676478172.392988,0.0
239,239.0,27955.39384548591,42602.6037457709,-36244.89590464782,-31734.023300888934,186872.00538778372,9227.805939651244,-29632.892266856703,-8912.95926725379,-0.042,0.962,0.082,192.0,0.0,0.0,0.0,0.0,0.0,0.0,0.0,0.0,0.0,1676478172.392997,0.0
240,240.0,28074.103960288045,42678.68908389677,-36088.79132137195,-31679.797968840357,186998.58331663412,9328.187624000027,-29102.686536632365,-8361.675842008095,-0.042,0.962,0.082,192.0,0.0,0.0,0.0,0.0,0.0,0.0,0.0,0.0,0.0,1676478172.393005,0.0
241,241.0,28163.66740032046,42767.8948960179,-36076.09553052134,-31688.537500922383,186992.81656656464,9348.013621331886,-28863.791091894043,-8007.557154602666,-0.042,0.962,0.082,192.0,0.0,0.0,0.0,0.0,0.0,0.0,0.0,0.0,0.0,1676478172.393014,0.0
242,242.0,28041.40335814993,42686.91452585632,-36254.373044296866,-31762.454719836085,186836.08613444402,9228.789416407279,-29410.581816504222,-8601.37594954681,-0.042,0.962,0.082,192.0,0.0,0.0,0.0,0.0,0.0,0.0,0.0,0.0,0.0,1676478172.393023,0.0
243,243.0,27944.553249425084,42589.9526584092,-36280.39047484285,-31761.694760524606,186835.3932303659,9214.372541233604,-29681.484959302543,-8967.54222721365,-0.042,0.962,0.082,192.0,0.0,0.0,0.0,0.0,0.0,0.0,0.0,0.0,0.0,1676478172.452473,0.0
244,244.0,28035.77071854719,42649.676519593784,-36121.827199676896,-31695.243024258976,186965.5697900736,9319.112815751174,-29203.045869236696,-8482.621131255763,-0.062,0.964,0.08,192.0,254.0,16.0,30.0,32.0,2.0,128.0,0.0,0.0,0.0,1676478172.452495,0.0
245,245.0,28148.512917579763,42753.94740747779,-36068.13830949525,-31687.777541610903,186972.00709247674,9359.301252281815,-28835.627893880355,-7992.58148581761,-0.062,0.964,0.08,192.0,0.0,0.0,0.0,0.0,0.0,0.0,0.0,0.0,0.0,1676478172.452508,0.0
246,246.0,28052.534526888674,42697.66571493932,-36238.570360966965,-31761.359484357774,186826.8995674729,9247.207253838451,-29305.08158267517,-8473.836895684826,-0.062,0.964,0.08,192.0,0.0,0.0,0.0,0.0,0.0,0.0,0.0,0.0,0.0,1676478172.45252,0.0
247,247.0,27932.729176608227,42587.739835708126,-36308.57602460099,-31770.411940862174,186785.8394129085,9198.815727092711,-29707.904721248713,-8976.102945340032,-0.062,0.964,0.08,192.0,0.0,0.0,0.0,0.0,0.0,0.0,0.0,0.0,0.0,1676478172.452531,0.0
248,248.0,28004.50062805422,42619.72518202367,-36174.756130547066,-31716.767754169436,186905.6671149334,9275.12458266313,-29328.95324575344,-8622.56540329044,-0.062,0.964,0.08,192.0,0.0,0.0,0.0,0.0,0.0,0.0,0.0,0.0,0.0,1676478172.452543,1.0
249,249.0,28143.10379542158,42739.575235793025,-36077.771911355485,-31686.592899154773,186975.9409995009,9331.741551368423,-28854.00102782262,-8047.678535899942,-0.062,0.964,0.08,192.0,0.0,0.0,0.0,0.0,0.0,0.0,0.0,0.0,0.0,1676478172.452554,1.0
250,250.0,28074.707457388336,42710.22739532321,-36225.40518348279,-31753.692836009603,186853.87812303044,9243.250995069862,-29198.508465112267,-8366.883798466182,-0.062,0.964,0.08,192.0,0.0,0.0,0.0,0.0,0.0,0.0,0.0,0.0,0.0,1676478172.452566,1.0
251,251.0,27923.497906148186,42582.062492616475,-36337.208609248235,-31783.443007879618,186772.4283662353,9175.972244259387,-29709.35758463831,-8972.481962738271,-0.062,0.964,0.08,192.0,0.0,0.0,0.0,0.0,0.0,0.0,0.0,0.0,0.0,1676478172.452577,1.0
252,252.0,27964.91568862387,42589.01388514208,-36219.19139852421,-31732.346920054784,186884.23179200076,9251.275271329318,-29435.59341854971,-8737.229852346165,-0.062,0.964,0.08,192.0,0.0,0.0,0.0,0.0,0.0,0.0,0.0,0.0,0.0,1676478172.452589,1.0
253,253.0,28114.918245663437,42707.29931679956,-36094.066333063405,-31697.902881849157,186968.6766825529,9325.170138498563,-28896.514045776614,-8109.03407442976,-0.062,0.964,0.08,192.0,0.0,0.0,0.0,0.0,0.0,0.0,0.0,0.0,0.0,1676478172.4526,1.0
254,254.0,28091.89594887447,42713.82602618051,-36207.14380826281,-31760.688932024117,186852.8499427855,9250.202387595462,-29104.38526921097,-8257.20378842399,-0.07,0.964,0.078,192.0,253.0,208.0,30.0,32.0,2.0,112.0,0.0,0.0,0.0,1676478172.452612,1.0
255,255.0,27915.071298488536,42573.0994430899,-36355.872315868415,-31818.803467607915,186749.1825520018,9148.14432241253,-29688.861034972793,-8947.939747326345,-0.07,0.964,0.078,192.0,0.0,0.0,0.0,0.0,0.0,0.0,0.0,0.0,0.0,1676478172.452623,1.0
256,0.0,27916.971196767237,42546.67968114372,-36273.03675091705,-31778.235051421532,186823.88208197142,9203.10726202813,-29556.51635605292,-8868.345185320995,-0.07,0.964,0.078,192.0,0.0,0.0,0.0,0.0,0.0,0.0,0.0,0.0,0.0,1676478172.452645,1.0
257,1.0,28064.470358427807,42662.752290100136,-36125.045850878465,-31733.688024722105,186929.71759196732,9296.761071295867,-28983.68584915231,-8223.832633952217,-0.07,0.964,0.078,192.0,0.0,0.0,0.0,0.0,0.0,0.0,0.0,0.0,0.0,1676478172.452657,1.0
258,2.0,28080.250690013254,42708.34984878896,-36189.08359874292,-31779.464397366573,186875.11228026298,9238.959460134443,-29023.382547304936,-8185.566447444731,-0.07,0.964,0.078,192.0,0.0,0.0,0.0,0.0,0.0,0.0,0.0,0.0,0.0,1676478172.516247,1.0
259,3.0,27921.95563578077,42582.73304495014,-36349.90440009885,-31842.384558008263,186758.74909862867,9121.836319188633,-29637.653188425684,-8903.079796204544,-0.07,0.964,0.078,192.0,0.0,0.0,0.0,0.0,0.0,0.0,0.0,0.0,0.0,1676478172.516268,0.0
260,4.0,27881.47662657221,42522.18216922071,-36309.40303914584,-31816.277720484464,186796.50119501367,9158.247310906328,-29650.57249672085,-8986.272989067196,-0.07,0.964,0.078,192.0,0.0,0.0,0.0,0.0,0.0,0.0,0.0,0.0,0.0,1676478172.516281,0.0
261,5.0,28011.340261857542,42608.86223421839,-36166.19541242068,-31766.165109415666,186906.98586785627,9260.21596911144,-29082.27939394467,-8355.439705305065,-0.07,0.964,0.078,192.0,0.0,0.0,0.0,0.0,0.0,0.0,0.0,0.0,0.0,1676478172.516293,0.0
262,6.0,28062.12342526,42671.78239486008,-36205.98151755113,-31792.249595195008,186850.3018439176,9237.484245000393,-28975.750979870678,-8132.2575369188235,-0.07,0.964,0.078,192.0,0.0,0.0,0.0,0.0,0.0,0.0,0.0,0.0,0.0,1676478172.516305,0.0
263,7.0,27903.113115204946,42558.21318128266,-36396.708952988265,-31868.424340298694,186695.62777228688,9096.981179354332,-29591.742705314486,-8824.26754525513,-0.07,0.964,0.078,192.0,0.0,0.0,0.0,0.0,0.0,0.0,0.0,0.0,0.0,1676478172.516316,0.0
264,8.0,27840.170602818802,42483.40189259075,-36386.78477845011,-31843.748014420038,186723.70156332274,9110.928667894445,-29741.566448398407,-9058.625585869026,-0.092,0.992,0.10200000000000001,192.0,253.0,32.0,31.0,0.0,3.0,48.0,0.0,0.0,0.0,1676478172.516328,0.0
265,9.0,27967.463787491775,42558.10142256039,-36229.830828884944,-31778.9503072441,186859.77898356665,9224.408474494037,-29196.49680811129,-8476.340291063821,-0.092,0.992,0.10200000000000001,192.0,0.0,0.0,0.0,0.0,0.0,0.0,0.0,0.0,0.0,1676478172.516339,0.0
266,10.0,28062.481053171286,42651.39760391684,-36217.15738977878,-31779.24087992202,186864.91988479136,9230.39874200806,-28934.91434275083,-8093.589019011143,-0.092,0.992,0.10200000000000001,192.0,0.0,0.0,0.0,0.0,0.0,0.0,0.0,0.0,0.0,1676478172.516351,0.0
267,11.0,27931.365720196452,42567.466803487165,-36407.50484556018,-31851.705235446127,186730.29532793706,9095.640074687013,-29484.74490460693,-8705.177450797255,-0.092,0.992,0.10200000000000001,192.0,0.0,0.0,0.0,0.0,0.0,0.0,0.0,0.0,0.0,1676478172.516362,0.0
268,12.0,27823.675015410783,42463.73235747008,-36453.88471530494,-31853.627485469282,186719.56649059852,9074.763545365757,-29772.545966213464,-9098.434042743927,-0.092,0.992,0.10200000000000001,192.0,0.0,0.0,0.0,0.0,0.0,0.0,0.0,0.0,0.0,1676478172.516374,0.0
269,13.0,27927.25299921668,42526.25018671157,-36306.22909143318,-31786.77341780346,186846.68086131584,9187.10341299813,-29295.917367448495,-8608.506156028052,-0.092,0.992,0.10200000000000001,192.0,0.0,0.0,0.0,0.0,0.0,0.0,0.0,0.0,0.0,1676478172.516385,0.0
270,14.0,28059.03888452517,42643.41803114629,-36243.21952381367,-31765.60631580428,186889.73032113677,9239.652364212558,-28886.075781115986,-8082.83782992814,-0.092,0.992,0.10200000000000001,192.0,0.0,0.0,0.0,0.0,0.0,0.0,0.0,0.0,0.0,1676478172.516397,0.0
271,15.0,27969.16252007038,42593.90891717779,-36414.09861017449,-31836.170773049686,186745.33805195548,9123.75856921179,-29339.77149006981,-8571.692832910161,-0.092,0.992,0.10200000000000001,192.0,0.0,0.0,0.0,0.0,0.0,0.0,0.0,0.0,0.0,1676478172.516414,0.0
272,16.0,27850.22888782369,42485.033569935986,-36487.2111662878,-31849.02302611149,186708.99411547114,9079.524466934738,-29751.580029914385,-9101.22801080084,-0.092,0.992,0.10200000000000001,192.0,0.0,0.0,0.0,0.0,0.0,0.0,0.0,0.0,0.0,1676478172.516425,0.0
273,17.0,27932.885638819414,42529.37943093532,-36333.81114409103,-31784.001801491002,186853.07346023005,9178.274473938283,-29347.37108318461,-8733.92179416678,-0.092,0.992,0.10200000000000001,192.0,0.0,0.0,0.0,0.0,0.0,0.0,0.0,0.0,0.0,1676478172.572958,0.0
274,18.0,28081.256518513743,42661.61235113291,-36217.89499734581,-31747.680216751127,186934.18794085836,9258.852512699666,-28827.76007983209,-8142.695801579453,-0.138,0.96,0.112,192.0,251.0,176.0,30.0,0.0,3.0,128.0,0.0,0.0,0.0,1676478172.572974,0.0
275,19.0,28036.128346458478,42647.88838003736,-36356.81108913554,-31816.076554784366,186821.22222438126,9161.354203385616,-29158.789415215186,-8473.412212540175,-0.138,0.96,0.112,192.0,0.0,0.0,0.0,0.0,0.0,0.0,0.0,0.0,0.0,1676478172.572983,0.0
276,20.0,27898.173379680324,42539.52712291803,-36452.61066587098,-31838.361244006308,186747.55087465656,9106.972409125854,-29686.245880871524,-9107.687664948424,-0.138,0.96,0.112,192.0,0.0,0.0,0.0,0.0,0.0,0.0,0.0,0.0,0.0,1676478172.572991,0.0
277,21.0,27928.30353120608,42550.45712595667,-36320.69067009576,-31784.873519524757,186847.7090415608,9201.162660260517,-29414.314557828257,-8889.109955919976,-0.138,0.96,0.112,192.0,0.0,0.0,0.0,0.0,0.0,0.0,0.0,0.0,0.0,1676478172.572999,0.0
278,22.0,28084.89985285996,42679.71726414171,-36167.268296154536,-31736.549048012384,186928.84587393355,9296.157574195573,-28832.297483956518,-8280.49430614642,-0.138,0.96,0.112,192.0,0.0,0.0,0.0,0.0,0.0,0.0,0.0,0.0,0.0,1676478172.573015,0.0
279,23.0,28072.98637306528,42696.63753469438,-36269.974561926676,-31788.80742654889,186811.81213996556,9228.25297454035,-29018.822791436054,-8442.119770302746,-0.138,0.96,0.112,192.0,0.0,0.0,0.0,0.0,0.0,0.0,0.0,0.0,0.0,1676478172.573024,0.0
280,24.0,27920.636882857907,42578.97795188164,-36413.15983690737,-31829.30878750191,186685.79300472655,9138.488368807837,-29632.19936277859,-9128.51949078077,-0.138,0.96,0.112,192.0,0.0,0.0,0.0,0.0,0.0,0.0,0.0,0.0,0.0,1676478172.573031,0.0
281,25.0,27924.3919759264,42563.73406216312,-36317.360260171925,-31776.178690931643,186729.98240351467,9214.864279611622,-29498.424172213578,-9051.160103220953,-0.138,0.96,0.112,192.0,0.0,0.0,0.0,0.0,0.0,0.0,0.0,0.0,0.0,1676478172.573039,0.0
282,26.0,28082.754085392247,42689.5743834465,-36145.8329732219,-31710.576320955315,186801.97737240524,9341.464560206481,-28865.780397150567,-8442.276232513932,-0.138,0.96,0.112,192.0,0.0,0.0,0.0,0.0,0.0,0.0,0.0,0.0,0.0,1676478172.573047,0.0
283,27.0,28116.79579219768,42743.911474217355,-36217.02327931205,-31741.153507370178,186693.8619844749,9315.760054082877,-28874.162301321307,-8442.700915658585,-0.138,0.96,0.112,192.0,0.0,0.0,0.0,0.0,0.0,0.0,0.0,0.0,0.0,1676478172.573055,0.0
284,28.0,27955.125624552446,42619.0099262011,-36409.002412438684,-31803.939557545134,186527.40854351624,9203.330779472682,-29514.830352643774,-9159.074325451174,-0.154,0.9420000000000001,0.10400000000000001,192.0,251.0,48.0,29.0,112.0,3.0,64.0,0.0,0.0,0.0,1676478172.573063,0.0
285,29.0,27925.688377104805,42567.6456174428,-36360.968513604224,-31766.992123960514,186522.08882833587,9241.373448535616,-29535.349254053745,-9242.826311925211,-0.154,0.9420000000000001,0.10400000000000001,192.0,0.0,0.0,0.0,0.0,0.0,0.0,0.0,0.0,0.0,1676478172.573071,0.0
286,30.0,28070.281811986188,42672.36354021592,-36177.57245034843,-31702.46263771804,186593.43559663722,9345.465522463981,-28929.01348221463,-8672.521552148051,-0.154,0.9420000000000001,0.10400000000000001,192.0,0.0,0.0,0.0,0.0,0.0,0.0,0.0,0.0,0.0,1676478172.573079,0.0
287,31.0,28137.202934885376,42755.42262261184,-36168.00590372156,-31710.88924537769,186546.6310437478,9350.8075893888,-28763.990552901098,-8481.81646845537,-0.154,0.9420000000000001,0.10400000000000001,192.0,0.0,0.0,0.0,0.0,0.0,0.0,0.0,0.0,0.0,1676478172.573087,0.0
288,32.0,27995.73874422774,42652.22461846169,-36338.549713915556,-31775.48578685353,186395.42149250765,9227.381256506593,-29368.3817229726,-9123.84797618961,-0.154,0.9420000000000001,0.10400000000000001,192.0,0.0,0.0,0.0,0.0,0.0,0.0,0.0,0.0,0.0,1676478172.631705,0.0
289,33.0,27933.28797021961,42577.18981232522,-36313.918091525804,-31752.86582146476,186422.86943469878,9239.004163623353,-29531.99649238545,-9336.61423165968,-0.154,0.9420000000000001,0.10400000000000001,192.0,0.0,0.0,0.0,0.0,0.0,0.0,0.0,0.0,0.0,1676478172.631719,0.0
290,34.0,28067.689009629372,42666.90971456882,-36117.51331299702,-31687.978707311002,186569.7874510035,9370.275958809372,-28965.603287887967,-8825.496891200173,-0.154,0.9420000000000001,0.10400000000000001,192.0,0.0,0.0,0.0,0.0,0.0,0.0,0.0,0.0,0.0,1676478172.631727,0.0
291,35.0,28181.593499373615,42775.852117043985,-36071.066388018895,-31680.22265198501,186560.95851194367,9402.976560947485,-28670.515557589002,-8488.544343536418,-0.154,0.9420000000000001,0.10400000000000001,192.0,0.0,0.0,0.0,0.0,0.0,0.0,0.0,0.0,0.0,1676478172.631733,0.0
292,36.0,28051.014608265712,42692.99420034816,-36255.28946581954,-31763.460548336574,186389.18535580463,9247.430771283003,-29235.142974274517,-9053.12705673302,-0.154,0.9420000000000001,0.10400000000000001,192.0,0.0,0.0,0.0,0.0,0.0,0.0,0.0,0.0,0.0,1676478172.63174,0.0
293,37.0,27939.725272622738,42585.05762637349,-36276.545974796536,-31766.05335069339,186368.42058520563,9215.53483194528,-29554.527050796398,-9407.536316816368,-0.116,0.984,0.068,192.0,252.0,96.0,30.0,192.0,2.0,32.0,0.0,0.0,0.0,1676478172.631758,0.0
294,38.0,28033.870820268494,42641.071097978485,-36098.98371684358,-31703.021431329424,186484.94022905116,9314.933039538031,-29086.90620504692,-8967.229302791275,-0.116,0.984,0.068,192.0,0.0,0.0,0.0,0.0,0.0,0.0,0.0,0.0,0.0,1676478172.631765,0.0
295,39.0,28142.343836110096,42750.72875627622,-36020.21616938307,-31692.89609109117,186502.95573508213,9360.105915082208,-28691.168569465706,-8516.30521014991,-0.116,0.984,0.068,192.0,0.0,0.0,0.0,0.0,0.0,0.0,0.0,0.0,0.0,1676478172.631771,0.0
296,40.0,28039.481108126773,42685.30520025554,-36187.49662488659,-31779.844377022313,186350.4944861525,9228.49884372936,-29168.020685675227,-8970.49265748175,-0.116,0.984,0.068,192.0,0.0,0.0,0.0,0.0,0.0,0.0,0.0,0.0,0.0,1676478172.631777,0.0
297,41.0,27916.85943804496,42565.27633253054,-36261.48089903365,-31797.278737697452,186310.35075311075,9169.266720922795,-29625.47148769754,-9450.764590592933,-0.116,0.984,0.068,192.0,0.0,0.0,0.0,0.0,0.0,0.0,0.0,0.0,0.0,1676478172.631784,0.0
298,42.0,27972.96231662778,42588.56685025297,-36123.48122876659,-31749.110728396266,186427.83152196783,9247.274309071816,-29275.80079743872,-9115.689589463424,-0.116,0.984,0.068,192.0,0.0,0.0,0.0,0.0,0.0,0.0,0.0,0.0,0.0,1676478172.63179,0.0
299,43.0,28104.100001347066,42697.576307961506,-36019.2997478604,-31727.94362639709,186506.39790372824,9332.412103702081,-28796.959375972674,-8567.781277630482,-0.116,0.984,0.068,192.0,0.0,0.0,0.0,0.0,0.0,0.0,0.0,0.0,0.0,1676478172.6318,0.0
300,44.0,28061.45287292634,42666.75325235764,-36154.14782215927,-31789.522682371462,186412.96761190507,9228.320029773717,-29137.66701670492,-8864.545388763594,-0.116,0.984,0.068,192.0,0.0,0.0,0.0,0.0,0.0,0.0,0.0,0.0,0.0,1676478172.631806,0.0
301,45.0,27900.76618203714,42535.50380891607,-36265.28069559106,-31825.978377578067,186386.23492553653,9119.712903465379,-29688.92809020616,-9466.58962566729,-0.116,0.984,0.068,192.0,0.0,0.0,0.0,0.0,0.0,0.0,0.0,0.0,0.0,1676478172.631812,0.0
302,46.0,27924.213161970754,42527.41247742325,-36158.238191394594,-31782.28071716794,186525.17336907072,9177.380404160072,-29464.293058430325,-9259.076030144219,-0.116,0.984,0.068,192.0,0.0,0.0,0.0,0.0,0.0,0.0,0.0,0.0,0.0,1676478172.631818,0.0
303,47.0,28082.41880922542,42642.054574734524,-36027.12285841976,-31742.42755680413,186646.76685890756,9252.884596930098,-28927.515915336124,-8652.717906560649,-0.098,1.034,0.034,192.0,252.0,240.0,32.0,80.0,1.0,16.0,0.0,0.0,0.0,1676478172.691747,0.0
304,48.0,28052.065140255112,42659.2207144762,-36127.57159800191,-31797.23403420854,186589.47933786863,9174.049994236231,-29112.163676281416,-8782.492134868162,-0.098,1.034,0.034,192.0,0.0,0.0,0.0,0.0,0.0,0.0,0.0,0.0,0.0,1676478172.69176,0.0
305,49.0,27870.12194038891,42527.09955300087,-36275.3613323404,-31851.146441834742,186498.84301410234,9045.259242684751,-29717.627730086773,-9466.790791367388,-0.098,1.034,0.034,192.0,0.0,0.0,0.0,0.0,0.0,0.0,0.0,0.0,0.0,1676478172.691767,0.0
306,50.0,27863.058789141036,42489.16864266022,-36202.40523843828,-31816.34477571783,186619.7435998611,9070.337899963606,-29620.017662050446,-9423.42840712409,-0.098,1.034,0.034,192.0,0.0,0.0,0.0,0.0,0.0,0.0,0.0,0.0,0.0,1676478172.691774,0.0
307,51.0,28012.79312524714,42594.13243462234,-36060.3599024248,-31762.72294076955,186772.5848284465,9167.031546477265,-29055.12202443147,-8801.602876377448,-0.098,1.034,0.034,192.0,0.0,0.0,0.0,0.0,0.0,0.0,0.0,0.0,0.0,1676478172.69178,0.0
308,52.0,28044.912582029414,42650.68234809427,-36123.3247665554,-31791.780208561446,186737.20201697375,9142.444627576426,-29074.03160024066,-8746.863454206403,-0.098,1.034,0.034,192.0,0.0,0.0,0.0,0.0,0.0,0.0,0.0,0.0,0.0,1676478172.691786,0.0
309,53.0,27893.27834764461,42531.860474569854,-36296.14845468384,-31852.755767435527,186653.62884445535,9024.092140685576,-29685.597680282317,-9436.638288097178,-0.098,1.034,0.034,192.0,0.0,0.0,0.0,0.0,0.0,0.0,0.0,0.0,0.0,1676478172.691792,0.0
310,54.0,27862.14236761837,42471.55546802944,-36270.578059026964,-31827.67711015667,186774.46237498074,9042.621736839024,-29727.574256369386,-9549.715763296577,-0.098,1.034,0.034,192.0,0.0,0.0,0.0,0.0,0.0,0.0,0.0,0.0,0.0,1676478172.691798,0.0
311,55.0,28017.48699158275,42579.08971060392,-36118.452086264144,-31762.007684946977,186948.73892649877,9139.315383352683,-29162.030418161205,-8975.655910450925,-0.098,1.034,0.034,192.0,0.0,0.0,0.0,0.0,0.0,0.0,0.0,0.0,0.0,1676478172.691804,0.0
312,56.0,28073.187538765378,42664.071043022996,-36129.73971721408,-31773.67529555265,186925.94014715435,9096.891772376512,-29018.93455015833,-8755.02184093259,-0.098,1.034,0.034,192.0,0.0,0.0,0.0,0.0,0.0,0.0,0.0,0.0,0.0,1676478172.69181,0.0
313,57.0,27941.513412179163,42575.356969279885,-36290.42640810328,-31834.762613149003,186803.89962242838,8983.948407643844,-29598.627042606717,-9398.595619034246,-0.092,1.03,0.028,192.0,253.0,32.0,32.0,48.0,0.0,224.0,0.0,0.0,0.0,1676478172.691816,0.0
314,58.0,27887.712763275238,42508.50290161406,-36273.55084103952,-31810.600377392817,186848.3125386611,8998.700558984347,-29765.527518454495,-9638.76511320652,-0.092,1.03,0.028,192.0,0.0,0.0,0.0,0.0,0.0,0.0,0.0,0.0,0.0,1676478172.691823,0.0
315,59.0,28024.72895678627,42603.56487078248,-36096.793245886955,-31736.683158479114,187020.80095062268,9105.519545736259,-29233.377186462545,-9122.775092455757,-0.092,1.03,0.028,192.0,0.0,0.0,0.0,0.0,0.0,0.0,0.0,0.0,0.0,1676478172.691829,0.0
316,60.0,28132.911399949957,42712.46256976874,-36060.1140332358,-31728.010681630458,187056.22846558434,9142.109351409597,-28944.413834144336,-8752.294928109042,-0.092,1.03,0.028,192.0,0.0,0.0,0.0,0.0,0.0,0.0,0.0,0.0,0.0,1676478172.691835,0.0
317,61.0,28014.625968292472,42645.98848175866,-36233.250645786604,-31794.216548707074,186935.19376935886,9030.194166921874,-29461.655552584598,-9282.992396711397,-0.092,1.03,0.028,192.0,0.0,0.0,0.0,0.0,0.0,0.0,0.0,0.0,0.0,1676478172.691841,0.0
318,62.0,27920.882752046917,42554.547495192,-36266.46533804719,-31791.601394605805,186921.08981860755,9019.9794197058,-29770.713123168127,-9651.237386612582,-0.092,1.03,0.028,192.0,0.0,0.0,0.0,0.0,0.0,0.0,0.0,0.0,0.0,1676478172.753312,0.0
319,63.0,28023.857238752516,42614.00313544311,-36105.44337099116,-31731.296388065388,187073.68517800394,9129.815891959179,-29319.252588659834,-9229.862300141132,-0.092,1.03,0.028,192.0,0.0,0.0,0.0,0.0,0.0,0.0,0.0,0.0,0.0,1676478172.753325,0.0
320,64.0,28169.031818989733,42740.51400906015,-36024.507704318494,-31709.414030243643,187136.00184154534,9175.14522971454,-28915.825952985997,-8757.033497933568,-0.092,1.03,0.028,192.0,0.0,0.0,0.0,0.0,0.0,0.0,0.0,0.0,0.0,1676478172.753338,0.0
321,65.0,28105.955196136856,42717.26819482663,-36164.49667984208,-31758.23024013403,187024.15371229098,9070.516713919249,-29316.056289202726,-9151.340621869638,-0.092,1.03,0.028,192.0,0.0,0.0,0.0,0.0,0.0,0.0,0.0,0.0,0.0,1676478172.753345,0.0
322,66.0,27979.176101586356,42606.98468768415,-36244.49357324762,-31769.47316759505,186989.41910140743,9049.55077762017,-29734.65975936172,-9624.817624666408,-0.092,1.03,0.028,192.0,0.0,0.0,0.0,0.0,0.0,0.0,0.0,0.0,0.0,1676478172.753351,0.0
323,67.0,28050.45581465433,42642.1663334568,-36107.87971113679,-31707.04474533138,187123.03782976125,9150.960642213899,-29381.837473134696,-9305.634713844624,-0.068,0.98,0.024,192.0,253.0,224.0,30.0,160.0,0.0,192.0,0.0,0.0,0.0,1676478172.753357,0.0
324,68.0,28209.06379330919,42773.03579724262,-35985.302744543886,-31660.84368954226,187217.20572915146,9250.917643418032,-28876.978621122675,-8742.527215782073,-0.068,0.98,0.024,192.0,0.0,0.0,0.0,0.0,0.0,0.0,0.0,0.0,0.0,1676478172.753363,0.0
325,69.0,28174.686810336927,42768.63250358492,-36114.80875191793,-31711.716259922538,187104.8658615191,9166.562159843703,-29164.57851702911,-8983.702538454836,-0.068,0.98,0.024,192.0,0.0,0.0,0.0,0.0,0.0,0.0,0.0,0.0,0.0,1676478172.753369,0.0
326,70.0,28023.186686418856,42649.63181610487,-36235.910503376785,-31738.9406846691,187033.7873141512,9106.27950504774,-29683.384857581244,-9543.680792293644,-0.068,0.98,0.024,192.0,0.0,0.0,0.0,0.0,0.0,0.0,0.0,0.0,0.0,1676478172.753375,0.0
327,71.0,28042.230372694776,42653.565723129,-36114.62993796229,-31682.636640386183,187161.79575464677,9173.759421558312,-29450.993770479414,-9352.66278417859,-0.068,0.98,0.024,192.0,0.0,0.0,0.0,0.0,0.0,0.0,0.0,0.0,0.0,1676478172.753382,0.0
328,72.0,28209.980214831856,42783.071730503056,-35955.709034885054,-31625.147953647134,187278.18128802555,9257.153780121062,-28895.418810298303,-8763.873131736891,-0.068,0.98,0.024,192.0,0.0,0.0,0.0,0.0,0.0,0.0,0.0,0.0,0.0,1676478172.753388,0.0
329,73.0,28224.575903961173,42812.643088417426,-36039.41631787018,-31663.727064576993,187226.77227577835,9217.524137201803,-29037.620608522968,-8843.51239723115,-0.068,0.98,0.024,192.0,0.0,0.0,0.0,0.0,0.0,0.0,0.0,0.0,0.0,1676478172.753394,0.0
330,74.0,28063.97862004979,42691.273116025106,-36191.27406969954,-31707.737649409493,187111.6160883446,9141.416447331483,-29616.86606608225,-9447.009497524441,-0.068,0.98,0.024,192.0,0.0,0.0,0.0,0.0,0.0,0.0,0.0,0.0,0.0,1676478172.7534,0.0
331,75.0,28048.399454164442,42660.159487743316,-36109.444333248655,-31668.21976521251,187128.8269315752,9196.647607880546,-29520.753564924427,-9387.553857273324,-0.068,0.98,0.024,192.0,0.0,0.0,0.0,0.0,0.0,0.0,0.0,0.0,0.0,1676478172.753406,0.0
332,76.0,28197.9549763149,42769.12424196294,-35947.617703392236,-31619.560017533306,187244.11722947567,9289.161478181062,-28951.67815109231,-8805.179155490297,-0.068,0.98,0.024,192.0,0.0,0.0,0.0,0.0,0.0,0.0,0.0,0.0,0.0,1676478172.753412,0.0
333,77.0,28236.668197711493,42819.52742570966,-36009.97907042254,-31655.926305762092,187171.7199291849,9259.88069294461,-28955.41089241635,-8722.835328916946,-0.028,0.968,0.04,192.0,255.0,32.0,30.0,64.0,1.0,64.0,0.0,0.0,0.0,1676478172.812047,0.0
334,78.0,28082.17294003641,42703.63363070889,-36194.91740404575,-31722.199228072077,187023.95254659088,9159.923691740476,-29552.85066996225,-9333.529690924846,-0.028,0.968,0.04,192.0,0.0,0.0,0.0,0.0,0.0,0.0,0.0,0.0,0.0,1676478172.812059,0.0
335,79.0,28044.242029695753,42645.92142652529,-36161.59095306289,-31706.731820909004,187053.658014972,9201.386177705072,-29601.62217636373,-9430.715075816523,-0.028,0.968,0.04,192.0,0.0,0.0,0.0,0.0,0.0,0.0,0.0,0.0,0.0,1676478172.812066,0.0
336,80.0,28168.025990489245,42741.65394802737,-35983.045218353895,-31650.628942326184,187177.55373448777,9283.931169978521,-29037.12887014495,-8866.199417853286,-0.028,0.968,0.04,192.0,0.0,0.0,0.0,0.0,0.0,0.0,0.0,0.0,0.0,1676478172.812073,0.0
337,81.0,28226.028767350766,42811.27963200565,-35990.13072134623,-31673.472425159507,187139.46636193592,9282.992396711397,-28883.170054336795,-8625.046446924978,-0.028,0.968,0.04,192.0,0.0,0.0,0.0,0.0,0.0,0.0,0.0,0.0,0.0,1676478172.812079,0.0
338,82.0,28072.27111724271,42706.67346795482,-36179.986438749605,-31749.468356307552,186991.2966479417,9156.570930072181,-29458.615715338674,-9196.28997996926,-0.028,0.968,0.04,192.0,0.0,0.0,0.0,0.0,0.0,0.0,0.0,0.0,0.0,1676478172.812085,0.0
339,83.0,27991.96129941479,42621.44626634673,-36192.7939883225,-31745.981484172524,187001.73491260232,9158.806104517711,-29643.1964210506,-9423.137834446172,-0.028,0.968,0.04,192.0,0.0,0.0,0.0,0.0,0.0,0.0,0.0,0.0,0.0,1676478172.812091,0.0
340,84.0,28105.88814090349,42686.4227874783,-36032.554332322405,-31694.907748092148,187136.2253589899,9246.670811971524,-29138.605789972044,-8921.676447591359,-0.028,0.968,0.04,192.0,0.0,0.0,0.0,0.0,0.0,0.0,0.0,0.0,0.0,1676478172.812097,0.0
341,85.0,28197.440886192428,42769.146593707395,-36005.642831998215,-31704.407239485652,187135.53245491176,9246.760218949345,-28865.95921110621,-8553.476161179085,-0.028,0.968,0.04,192.0,0.0,0.0,0.0,0.0,0.0,0.0,0.0,0.0,0.0,1676478172.812103,0.0
342,86.0,28033.13321270147,42664.138098256364,-36212.64233739881,-31806.465304668585,186946.39199333097,9120.204641843397,-29402.848112922686,-9059.005565524765,-0.028,0.968,0.04,192.0,0.0,0.0,0.0,0.0,0.0,0.0,0.0,0.0,0.0,1676478172.812117,0.0
343,87.0,27899.08980120299,42539.68358512921,-36279.07172191998,-31831.25338926952,186863.73524233524,9096.08710957612,-29743.08636702137,-9428.010514737429,0.018000000000000002,0.9380000000000001,0.022,192.0,0.0,144.0,29.0,80.0,0.0,176.0,0.0,0.0,0.0,1676478172.812123,0.0
344,88.0,27983.646450477416,42585.81758568497,-36119.86024616483,-31775.441083364618,186988.3462176736,9174.63113959207,-29308.970786210393,-9008.915306200422,0.018000000000000002,0.9380000000000001,0.022,192.0,0.0,0.0,0.0,0.0,0.0,0.0,0.0,0.0,0.0,1676478172.81213,0.0
345,89.0,28109.50912350525,42691.630743936395,-36044.490163861534,-31761.247725635498,187036.0001368523,9212.070311554708,-28914.708365763232,-8533.717219080594,0.018000000000000002,0.9380000000000001,0.022,192.0,0.0,0.0,0.0,0.0,0.0,0.0,0.0,0.0,0.0,1676478172.812136,0.0
346,90.0,28011.004985690714,42635.974900242676,-36222.47710495914,-31841.2669707855,186880.90138207693,9107.508850992781,-29343.45952790493,-8913.272191676164,0.018000000000000002,0.9380000000000001,0.022,192.0,0.0,0.0,0.0,0.0,0.0,0.0,0.0,0.0,0.0,1676478172.812142,0.0
347,91.0,27848.50780350063,42497.192918919674,-36340.628426149895,-31880.40487532674,186786.26409605314,9043.828731039612,-29802.89963518377,-9400.316703357305,0.018000000000000002,0.9380000000000001,0.022,192.0,0.0,0.0,0.0,0.0,0.0,0.0,0.0,0.0,0.0,1676478172.812148,0.0
348,92.0,27903.694260560784,42524.28323319951,-36206.607366395874,-31823.38557522125,186880.43199544336,9131.42521755996,-29469.612773610686,-9098.143470066008,0.018000000000000002,0.9380000000000001,0.022,192.0,0.0,0.0,0.0,0.0,0.0,0.0,0.0,0.0,0.0,1676478172.872823,0.0
349,93.0,28050.768739076706,42640.177028200276,-36098.24610927655,-31793.702458584605,186944.35798458554,9179.392061161048,-28981.9424130848,-8559.131152526279,0.018000000000000002,0.9380000000000001,0.022,192.0,0.0,0.0,0.0,0.0,0.0,0.0,0.0,0.0,0.0,1676478172.872836,0.0
350,94.0,27990.59784300302,42611.74560925312,-36248.96392213868,-31868.044360642954,186806.96181141876,9078.004548311776,-29286.999021410826,-8797.02076876411,0.018000000000000002,0.9380000000000001,0.022,192.0,0.0,0.0,0.0,0.0,0.0,0.0,0.0,0.0,0.0,1676478172.872843,0.0
351,95.0,27826.55839044552,42476.40579657624,-36386.494205772186,-31917.575826355915,186696.5218420651,9009.898782956456,-29831.576923319928,-9373.114630355196,0.018000000000000002,0.9380000000000001,0.022,192.0,0.0,0.0,0.0,0.0,0.0,0.0,0.0,0.0,0.0,1676478172.87285,0.0
352,96.0,27855.36978904841,42474.14827038626,-36268.94638168173,-31870.659514744228,186799.85395668197,9066.69456561739,-29604.304385698368,-9206.01298880732,0.018000000000000002,0.9380000000000001,0.022,192.0,0.0,0.0,0.0,0.0,0.0,0.0,0.0,0.0,0.0,1676478172.872856,0.0
353,97.0,28010.580302546063,42596.03233290104,-36112.05948734993,-31816.076554784366,186880.07436753207,9157.040316705743,-29047.969466205774,-8615.122272386823,0.014,0.974,0.01,192.0,0.0,112.0,30.0,112.0,0.0,80.0,0.0,0.0,0.0,1676478172.872862,0.0
354,98.0,28000.544369285628,42616.55123431102,-36210.809494353474,-31861.338837306364,186756.04453754958,9105.050159102699,-29199.804866290673,-8677.416584183764,0.014,0.974,0.01,192.0,0.0,0.0,0.0,0.0,0.0,0.0,0.0,0.0,0.0,1676478172.872868,0.0
355,99.0,27838.114242328913,42493.99661946257,-36364.902420628365,-31909.88682626329,186641.6483094273,9007.238925366275,-29782.604251218352,-9284.847591501188,0.014,0.974,0.01,192.0,0.0,0.0,0.0,0.0,0.0,0.0,0.0,0.0,0.0,1676478172.872874,0.0
356,100.0,27845.26680055461,42473.298904096955,-36278.80350098652,-31860.310657061418,186728.35072616945,9082.810173369668,-29685.44121807113,-9238.02068686732,0.014,0.974,0.01,192.0,0.0,0.0,0.0,0.0,0.0,0.0,0.0,0.0,0.0,1676478172.87288,0.0
357,101.0,28016.70468052682,42597.06051314599,-36103.632879690274,-31794.596528362817,186861.47771614525,9187.081061253675,-29099.445533686347,-8650.683897815215,0.014,0.974,0.01,192.0,0.0,0.0,0.0,0.0,0.0,0.0,0.0,0.0,0.0,1676478172.872886,0.0
358,102.0,28055.46260541232,42660.58417088797,-36143.083708653896,-31812.96966230508,186823.1444744044,9174.206456447419,-29078.32313517608,-8545.563643641906,0.014,0.974,0.01,192.0,0.0,0.0,0.0,0.0,0.0,0.0,0.0,0.0,0.0,1676478172.872893,0.0
359,103.0,27911.204446697768,42560.56011445047,-36303.3680681429,-31860.914154161714,186739.21367397474,9105.497193991803,-29671.046694641915,-9146.423238089472,0.014,0.974,0.01,192.0,0.0,0.0,0.0,0.0,0.0,0.0,0.0,0.0,0.0,1676478172.872899,0.0
360,104.0,27879.62143178242,42519.142331974785,-36252.09316636243,-31821.97741532057,186757.7879736171,9160.43778186295,-29717.203046942122,-9236.836044411188,0.014,0.974,0.01,192.0,0.0,0.0,0.0,0.0,0.0,0.0,0.0,0.0,0.0,1676478172.872905,0.0
361,105.0,28028.84167776605,42629.336432139455,-36068.92062055119,-31744.573324271838,186882.9130390779,9235.651401955058,-29145.601885986554,-8669.928749791236,0.014,0.974,0.01,192.0,0.0,0.0,0.0,0.0,0.0,0.0,0.0,0.0,0.0,1676478172.872911,0.0
362,106.0,28115.454687530364,42723.16905536283,-36057.4094721567,-31738.985388158013,186876.29692271914,9241.35109679116,-28968.061979778053,-8406.736958829995,0.012,0.978,0.02,192.0,0.0,96.0,30.0,144.0,0.0,160.0,0.0,0.0,0.0,1676478172.872917,0.0
363,107.0,27988.74264821323,42641.495781123136,-36227.3497852504,-31793.09896148431,186741.91823505383,9162.67295630848,-29531.594160985253,-8961.641366677448,0.012,0.978,0.02,192.0,0.0,0.0,0.0,0.0,0.0,0.0,0.0,0.0,0.0,1676478172.93312,0.0
364,108.0,27913.86430428795,42567.533858720526,-36231.59661669691,-31770.255478650986,186770.99785459018,9178.900322783033,-29728.60243661433,-9194.568895646202,0.012,0.978,0.02,192.0,0.0,0.0,0.0,0.0,0.0,0.0,0.0,0.0,0.0,1676478172.933134,0.0
365,109.0,28035.703663313827,42645.608502102914,-36065.478451905066,-31701.836788873294,186908.1258068235,9278.902027476077,-29217.753317088285,-8699.522459450061,0.012,0.978,0.02,192.0,0.0,0.0,0.0,0.0,0.0,0.0,0.0,0.0,0.0,1676478172.93314,0.0
366,110.0,28149.2952286357,42749.18648590881,-36023.01013743998,-31689.073942789313,186935.12671412548,9318.822243073255,-28914.328386107492,-8307.83048961526,0.012,0.978,0.02,192.0,0.0,0.0,0.0,0.0,0.0,0.0,0.0,0.0,0.0,1676478172.933147,0.0
367,111.0,28052.154547232934,42693.75415965965,-36193.196319722694,-31745.66855975015,186808.34761957498,9238.288907800783,-29416.77324971834,-8781.486306367673,0.012,0.978,0.02,192.0,0.0,0.0,0.0,0.0,0.0,0.0,0.0,0.0,0.0,1676478172.933153,0.0
368,112.0,27965.072150835058,42610.605670285906,-36230.76960215207,-31730.33526305381,186804.43606429533,9234.042076354275,-29737.565486140906,-9141.841130476134,0.012,0.978,0.02,192.0,0.0,0.0,0.0,0.0,0.0,0.0,0.0,0.0,0.0,1676478172.933159,0.0
369,113.0,28079.669544657416,42683.0253223211,-36058.30354193492,-31647.969084736003,186946.7272694978,9332.389751957626,-29285.792027210242,-8716.219212558177,0.012,0.978,0.02,192.0,0.0,0.0,0.0,0.0,0.0,0.0,0.0,0.0,0.0,1676478172.933165,0.0
370,114.0,28222.63130219356,42807.41278021488,-35971.243497281495,-31615.73786923145,186998.80683407866,9391.264246852905,-28864.70751341671,-8220.613982750652,0.012,0.978,0.02,192.0,0.0,0.0,0.0,0.0,0.0,0.0,0.0,0.0,0.0,1676478172.933171,0.0
371,115.0,28118.159248609456,42754.059166200066,-36146.81644997793,-31692.02437305741,186852.44761138532,9300.896144020098,-29282.685134730953,-8596.615027977829,0.012,0.978,0.02,192.0,0.0,0.0,0.0,0.0,0.0,0.0,0.0,0.0,0.0,1676478172.933178,0.0
372,116.0,27958.12075830946,42620.77571401307,-36262.17380311177,-31725.32847229582,186771.9366278573,9241.619317724624,-29755.826861360893,-9107.017112614765,-0.02,0.966,0.034,192.0,255.0,96.0,30.0,48.0,1.0,16.0,0.0,0.0,0.0,1676478172.933184,0.0
373,117.0,28037.156526703424,42659.26541796511,-36117.33449904138,-31656.574506351295,186893.08308280507,9341.397504973114,-29408.927787414526,-8805.872059568414,-0.02,0.966,0.034,192.0,0.0,0.0,0.0,0.0,0.0,0.0,0.0,0.0,0.0,1676478172.93319,0.0
374,118.0,28204.928720584958,42790.73837885122,-35988.141416089704,-31607.959462161,186983.6970548269,9431.072703727807,-28891.10492361843,-8239.031820181826,-0.02,0.966,0.034,192.0,0.0,0.0,0.0,0.0,0.0,0.0,0.0,0.0,0.0,1676478172.933196,0.0
375,119.0,28170.216461445867,42789.352570694995,-36113.13237108378,-31652.014750482413,186883.9635710673,9328.455844933493,-29162.455101305855,-8442.790322636405,-0.02,0.966,0.034,192.0,0.0,0.0,0.0,0.0,0.0,0.0,0.0,0.0,0.0,1676478172.933202,0.0
376,120.0,28016.05647993761,42668.96607505871,-36245.72291919267,-31679.596803140263,186780.96673261723,9254.359812064149,-29708.530570093462,-9015.486719070283,-0.02,0.966,0.034,192.0,0.0,0.0,0.0,0.0,0.0,0.0,0.0,0.0,0.0,1676478172.933208,0.0
377,121.0,28044.577305862585,42663.53460115607,-36140.24503710807,-31630.445317083042,186874.57583839606,9326.22067048796,-29497.865378602193,-8849.077981600522,-0.02,0.966,0.034,192.0,0.0,0.0,0.0,0.0,0.0,0.0,0.0,0.0,0.0,1676478172.933214,0.0
378,122.0,28208.706165397904,42785.48571890422,-35985.302744543886,-31578.075179824256,186970.84480176508,9425.663581569623,-28924.900761234854,-8248.486608086421,-0.02,0.966,0.034,192.0,0.0,0.0,0.0,0.0,0.0,0.0,0.0,0.0,0.0,1676478172.992361,0.0
379,123.0,28215.67990966796,42823.01429784469,-36067.355998439314,-31613.770915719382,186892.39017872696,9383.396432804637,-29034.714881743777,-8292.296027218823,-0.02,0.966,0.034,192.0,0.0,0.0,0.0,0.0,0.0,0.0,0.0,0.0,0.0,1676478172.992373,0.0
380,124.0,28046.007817507725,42691.56368870303,-36238.145677822315,-31667.37039892321,186779.37975876092,9302.147841709595,-29636.736766903017,-8919.62008710147,-0.02,0.966,0.034,192.0,0.0,0.0,0.0,0.0,0.0,0.0,0.0,0.0,0.0,1676478172.99238,0.0
381,125.0,28037.760023803716,42658.79603133155,-36166.0389502095,-31618.196561121535,186855.42039339786,9344.28088000785,-29560.09263516577,-8888.349996608496,-0.02,0.966,0.034,192.0,0.0,0.0,0.0,0.0,0.0,0.0,0.0,0.0,0.0,1676478172.992386,0.0
382,126.0,28194.781028602247,42772.81227979807,-35998.31145981687,-31556.550449913797,186984.50171762725,9448.328250447305,-28960.998828530173,-8274.034651998836,-0.06,0.988,0.062,192.0,254.0,32.0,30.0,224.0,1.0,240.0,0.0,0.0,0.0,1676478172.992393,0.0
383,127.0,28250.682741484972,42837.878207907466,-36048.04409122993,-31582.366714759675,186944.13446714098,9421.841433267766,-28928.119412436416,-8172.825953105206,-0.06,0.988,0.062,192.0,0.0,0.0,0.0,0.0,0.0,0.0,0.0,0.0,0.0,1676478172.992399,0.0
384,128.0,28094.712268675838,42723.25846234065,-36237.83275339994,-31646.918552746603,186817.4447795683,9305.768824311355,-29539.216105844513,-8817.047931796067,-0.06,0.988,0.062,192.0,0.0,0.0,0.0,0.0,0.0,0.0,0.0,0.0,0.0,1676478172.992411,0.0
385,129.0,28041.045730238646,42657.81255457551,-36204.68511637272,-31615.98373842046,186865.74689933623,9336.033086303842,-29599.364650173742,-8923.106959236498,-0.06,0.988,0.062,192.0,0.0,0.0,0.0,0.0,0.0,0.0,0.0,0.0,0.0,1676478172.992418,0.0
386,130.0,28177.86075804958,42750.08055568702,-36023.85950372928,-31552.10245276719,187003.88068007003,9444.416695167625,-29019.403936791892,-8354.098600637746,-0.06,0.988,0.062,192.0,0.0,0.0,0.0,0.0,0.0,0.0,0.0,0.0,0.0,1676478172.992424,0.0
387,131.0,28278.287145887276,42846.64009173395,-36011.9013204457,-31552.66124637857,186982.46770888183,9456.307823217849,-28823.870876296864,-8082.547257250221,-0.06,0.988,0.062,192.0,0.0,0.0,0.0,0.0,0.0,0.0,0.0,0.0,0.0,1676478172.99243,0.0
388,132.0,28141.360359354065,42750.348776620485,-36208.95429956369,-31626.287892614353,186824.8879104719,9347.678345165055,-29412.10173512718,-8681.775174352548,-0.06,0.988,0.062,192.0,0.0,0.0,0.0,0.0,0.0,0.0,0.0,0.0,0.0,1676478172.992436,0.0
389,133.0,28055.104977501032,42668.42963319179,-36226.612177683375,-31613.68150874156,186827.6371750399,9345.443170719525,-29635.708586658075,-8968.525703969683,-0.06,0.988,0.062,192.0,0.0,0.0,0.0,0.0,0.0,0.0,0.0,0.0,0.0,1676478172.992442,0.0
390,134.0,28171.04347599071,42742.592721294495,-36053.8108412994,-31551.409548689076,186977.8856012685,9451.971584793519,-29118.645682173454,-8474.596854996307,-0.06,0.988,0.062,192.0,0.0,0.0,0.0,0.0,0.0,0.0,0.0,0.0,0.0,1676478172.992448,0.0
391,135.0,28283.763323278825,42849.92579816888,-36005.97810816504,-31542.446499162495,186990.58139211911,9468.15424777916,-28794.32187012695,-8070.924350133461,-0.06,0.988,0.062,192.0,0.0,0.0,0.0,0.0,0.0,0.0,0.0,0.0,0.0,1676478172.992454,0.0
392,136.0,28162.594516586607,42775.51684087716,-36197.10787500237,-31617.81658146579,186829.82764599653,9346.784275386844,-29316.905655492028,-8585.50621098354,-0.092,0.982,0.078,192.0,253.0,32.0,30.0,176.0,2.0,112.0,0.0,0.0,0.0,1676478172.99246,0.0
393,137.0,28035.904829013925,42664.29456046755,-36262.93376242325,-31627.472535070487,186803.60904975046,9323.314943708772,-29680.009744168492,-9005.719006743313,-0.092,0.982,0.078,192.0,0.0,0.0,0.0,0.0,0.0,0.0,0.0,0.0,0.0,1676478173.054004,0.0
394,138.0,28124.842420201592,42709.7803604341,-36105.465722735615,-31570.453234964996,186927.95180415534,9412.230183151984,-29241.91555284447,-8604.84046993738,-0.092,0.982,0.078,192.0,0.0,0.0,0.0,0.0,0.0,0.0,0.0,0.0,0.0,1676478173.054016,0.0
395,139.0,28256.53889853226,42820.868530376974,-36030.14034392123,-31555.119938268657,186943.10628689604,9449.043506269874,-28813.387908147328,-8110.330475608168,-0.092,0.982,0.078,192.0,0.0,0.0,0.0,0.0,0.0,0.0,0.0,0.0,0.0,1676478173.054022,0.0
396,140.0,28175.15619697049,42779.02606475664,-36217.55972117898,-31632.054642683823,186795.40595953536,9350.8075893888,-29228.951541060396,-8498.893201219225,-0.092,0.982,0.078,192.0,0.0,0.0,0.0,0.0,0.0,0.0,0.0,0.0,0.0,1676478173.054028,0.0
397,141.0,28026.49474459824,42648.46952539319,-36346.68574889729,-31664.330561677285,186739.1242669969,9295.576428839735,-29712.151552695224,-9042.934661261399,-0.092,0.982,0.078,192.0,0.0,0.0,0.0,0.0,0.0,0.0,0.0,0.0,0.0,1676478173.054034,0.0
398,142.0,28064.425654938896,42652.98457777317,-36238.995044111616,-31622.085764656757,186831.28050938612,9361.335261027249,-29392.67806919552,-8776.300701654041,-0.092,0.982,0.078,192.0,0.0,0.0,0.0,0.0,0.0,0.0,0.0,0.0,0.0,1676478173.05404,0.0
399,143.0,28204.571092673672,42765.39150063891,-36128.95740615814,-31587.21704330648,186905.4659492333,9429.664543827123,-28863.09818781593,-8198.418700506532,-0.092,0.982,0.078,192.0,0.0,0.0,0.0,0.0,0.0,0.0,0.0,0.0,0.0,1676478173.054045,0.0
400,144.0,28165.72376081035,42754.21562841125,-36275.02605617357,-31647.745567291448,186790.26505831064,9339.072923549762,-29131.855563146542,-8423.389008449198,-0.092,0.982,0.078,192.0,0.0,0.0,0.0,0.0,0.0,0.0,0.0,0.0,0.0,1676478173.054051,0.0
401,145.0,27994.174122115866,42612.86319647589,-36416.691412531305,-31700.22746327251,186684.27308610358,9258.15960862155,-29706.787134025948,-9055.295175945184,-0.092,0.982,0.078,192.0,0.0,0.0,0.0,0.0,0.0,0.0,0.0,0.0,0.0,1676478173.054057,0.0
402,146.0,28013.77660200317,42595.45118754521,-36284.95023071173,-31660.150785464146,186773.97063660272,9301.387882398116,-29506.06846881729,-8919.217755701275,-0.146,0.9560000000000001,0.096,192.0,251.0,112.0,29.0,224.0,3.0,0.0,0.0,0.0,0.0,1676478173.054063,0.0
403,147.0,28152.647990303994,42702.69485744177,-36120.48609500958,-31625.0138431804,186845.07153571505,9375.528618756369,-28920.564522810524,-8331.545690482342,-0.146,0.9560000000000001,0.096,192.0,0.0,0.0,0.0,0.0,0.0,0.0,0.0,0.0,0.0,1676478173.054069,0.0
404,148.0,28139.14753665299,42718.22931983821,-36223.50528520409,-31681.474349674507,186753.8764183374,9297.901010263087,-29043.677931270355,-8402.75834831695,-0.146,0.9560000000000001,0.096,192.0,0.0,0.0,0.0,0.0,0.0,0.0,0.0,0.0,0.0,1676478173.054074,0.0
405,149.0,27963.552232212096,42577.63684721433,-36405.6943542593,-31748.70839699607,186590.30635241346,9207.53290743028,-29685.150645393212,-9072.595426153592,-0.146,0.9560000000000001,0.096,192.0,0.0,0.0,0.0,0.0,0.0,0.0,0.0,0.0,0.0,1676478173.05408,0.0
406,150.0,27939.591162156008,42530.92170130274,-36324.13283874188,-31725.842562418293,186639.48019021514,9271.034213427809,-29635.14979304669,-9073.400088953984,-0.146,0.9560000000000001,0.096,192.0,0.0,0.0,0.0,0.0,0.0,0.0,0.0,0.0,0.0,1676478173.05409,0.0
407,151.0,28082.821140625616,42635.79608628703,-36130.2314555921,-31679.21682348452,186742.9240635543,9321.41504543007,-29031.876210197952,-8477.949616664602,-0.146,0.9560000000000001,0.096,192.0,0.0,0.0,0.0,0.0,0.0,0.0,0.0,0.0,0.0,1676478173.054096,0.0
408,152.0,28119.790925954694,42691.764854403125,-36159.24401989508,-31716.27601579142,186623.31987897397,9279.349062365183,-28983.30586949657,-8366.928501955093,-0.146,0.9560000000000001,0.096,192.0,0.0,0.0,0.0,0.0,0.0,0.0,0.0,0.0,0.0,1676478173.111922,0.0
409,153.0,27955.662066419372,42571.75833842258,-36348.76446113163,-31791.601394605805,186427.94328069012,9163.00823247531,-29634.85922036877,-9039.738361804291,-0.146,0.9560000000000001,0.096,192.0,0.0,0.0,0.0,0.0,0.0,0.0,0.0,0.0,0.0,1676478173.111934,0.0
410,154.0,27897.636937813397,42497.88582299779,-36326.099792253946,-31779.643211322214,186426.46806555608,9175.972244259387,-29743.399291443744,-9193.764232845811,-0.146,0.9560000000000001,0.096,192.0,0.0,0.0,0.0,0.0,0.0,0.0,0.0,0.0,0.0,1676478173.111941,0.0
411,155.0,28022.78435501866,42582.75539669459,-36149.27514186801,-31725.12730659572,186513.34929625384,9285.31697813475,-29169.942935698386,-8623.884156213302,-0.146,0.9560000000000001,0.096,192.0,0.0,0.0,0.0,0.0,0.0,0.0,0.0,0.0,0.0,1676478173.111947,0.0
412,156.0,28091.56067270764,42661.05355752153,-36151.97970294711,-31742.718129482048,186417.28149858493,9289.519106092346,-28972.197052502284,-8339.547614997342,-0.112,1.008,0.128,192.0,252.0,128.0,31.0,128.0,4.0,0.0,0.0,0.0,0.0,1676478173.111954,0.0
413,157.0,27940.887563334414,42556.4473934707,-36357.50399321366,-31830.471078213584,186216.74164733192,9149.57483405767,-29584.724257555517,-8965.083535323565,-0.112,1.008,0.128,192.0,0.0,0.0,0.0,0.0,0.0,0.0,0.0,0.0,0.0,1676478173.111973,1.0
414,158.0,27843.523364487097,42458.03266263398,-36382.29207781459,-31829.197028779632,186190.2995336413,9139.337735097139,-29834.013263465557,-9273.872884973633,-0.112,1.008,0.128,192.0,0.0,0.0,0.0,0.0,0.0,0.0,0.0,0.0,0.0,1676478173.111979,1.0
415,159.0,27955.304438508087,42518.807055807956,-36225.561645693975,-31777.16216768768,186273.82800267078,9238.624183967613,-29315.452792102435,-8768.902274239335,-0.112,1.008,0.128,192.0,0.0,0.0,0.0,0.0,0.0,0.0,0.0,0.0,0.0,1676478173.111985,1.0
416,160.0,28060.178823492388,42622.09446693593,-36192.12343598884,-31775.10580719779,186253.80083963883,9271.905931461564,-28973.806378103065,-8336.708943451518,-0.112,1.008,0.128,192.0,0.0,0.0,0.0,0.0,0.0,0.0,0.0,0.0,0.0,1676478173.111991,1.0
417,161.0,27932.99739754169,42546.52321893254,-36404.196787380795,-31859.52834600548,186113.09660829266,9155.900377738522,-29492.903291333118,-8860.700888717281,-0.112,1.008,0.128,192.0,0.0,0.0,0.0,0.0,0.0,0.0,0.0,0.0,0.0,1676478173.111997,1.0
418,162.0,27798.439895920743,42425.10854305131,-36502.343297284046,-31884.674058517703,186104.73705586637,9097.741138665813,-29881.063685543977,-9308.808661557277,-0.112,1.008,0.128,192.0,0.0,0.0,0.0,0.0,0.0,0.0,0.0,0.0,0.0,1676478173.112003,1.0
419,163.0,27881.163702149835,42467.08511913838,-36363.31544677204,-31831.722775903083,186227.2693189704,9180.57670361718,-29445.20466866549,-8903.638589815926,-0.112,1.008,0.128,192.0,0.0,0.0,0.0,0.0,0.0,0.0,0.0,0.0,0.0,1676478173.11201,1.0
420,164.0,28001.237273363746,42566.975065109145,-36297.42250411779,-31826.69363340064,186292.49170929095,9215.356017989638,-28992.313622512058,-8374.997481703458,-0.112,1.008,0.128,192.0,0.0,0.0,0.0,0.0,0.0,0.0,0.0,0.0,0.0,1676478173.112016,1.0
421,165.0,27895.222949412222,42502.64674456677,-36500.443399005344,-31925.17541947072,186169.8923909536,9088.353405994583,-29421.467116053955,-8773.193809174754,-0.112,1.008,0.128,192.0,0.0,0.0,0.0,0.0,0.0,0.0,0.0,0.0,0.0,1676478173.112022,1.0
422,166.0,27733.552781766986,42362.210734154076,-36618.99705159629,-31972.918745627256,186120.20446302945,9012.245716124264,-29931.422165801785,-9339.296440994316,-0.134,0.914,0.114,192.0,251.0,208.0,28.0,144.0,3.0,144.0,0.0,0.0,0.0,1676478173.112028,1.0
423,167.0,27776.378724143357,42364.647074299704,-36484.84188137554,-31932.909123052257,186249.39754598113,9094.209563041873,-29616.57549340433,-9045.8850915295,-0.134,0.914,0.114,192.0,0.0,0.0,0.0,0.0,0.0,0.0,0.0,0.0,0.0,1676478173.173065,1.0
424,168.0,27912.65731008736,42462.793584202955,-36361.415548493336,-31909.372736140816,186345.71121283906,9169.870218023088,-29078.256079942716,-8438.923470845637,-0.134,0.914,0.114,192.0,0.0,0.0,0.0,0.0,0.0,0.0,0.0,0.0,0.0,1676478173.173078,0.0
425,169.0,27858.767254205617,42444.845133405346,-36499.974012371786,-31980.160710830776,186229.3703829492,9083.972464081344,-29354.166013499023,-8662.91030203227,-0.134,0.914,0.114,192.0,0.0,0.0,0.0,0.0,0.0,0.0,0.0,0.0,0.0,1676478173.173085,0.0
426,170.0,27668.86683331333,42293.345009487275,-36663.655837018,-32041.67271157178,186119.04217231777,8961.171980043886,-29964.122767939898,-9325.125435009651,-0.134,0.914,0.114,192.0,0.0,0.0,0.0,0.0,0.0,0.0,0.0,0.0,0.0,1676478173.173092,0.0
427,171.0,27675.684115372198,42266.09823299626,-36576.26051619775,-32007.51924604407,186206.01280999338,9011.172832390408,-29790.31560305543,-9183.907113541021,-0.134,0.914,0.114,192.0,0.0,0.0,0.0,0.0,0.0,0.0,0.0,0.0,0.0,1676478173.173104,0.0
428,172.0,27832.012216092615,42379.48863261803,-36417.92075847635,-31954.858536107367,186318.21856715903,9107.061816103676,-29192.138217942505,-8528.129282966767,-0.134,0.914,0.114,192.0,0.0,0.0,0.0,0.0,0.0,0.0,0.0,0.0,0.0,1676478173.173111,0.0
429,173.0,27845.378559276887,42412.56921441188,-36507.305384553125,-31991.8506731809,186226.2634904699,9056.077487001121,-29290.88822494605,-8554.772562357493,-0.134,0.914,0.114,192.0,0.0,0.0,0.0,0.0,0.0,0.0,0.0,0.0,0.0,1676478173.173117,0.0
430,174.0,27690.078638801413,42293.14384378718,-36673.043569689224,-32034.184877179254,186111.88961409207,8943.000011801721,-29906.656432945307,-9227.291849528772,-0.134,0.914,0.114,192.0,0.0,0.0,0.0,0.0,0.0,0.0,0.0,0.0,0.0,1676478173.173123,0.0
431,175.0,27673.918327560226,42264.24303820646,-36587.39168493649,-31979.512510241573,186196.17804243305,9003.68499799788,-29830.213466908153,-9199.888610826565,-0.166,0.972,0.158,192.0,250.0,208.0,30.0,96.0,4.0,240.0,0.0,0.0,0.0,1676478173.17313,0.0
432,176.0,27844.104509842935,42397.75000783802,-36388.39410405089,-31895.425247600706,186346.985262273,9136.409656573494,-29193.188749931905,-8539.50632089452,-0.166,0.972,0.158,192.0,0.0,0.0,0.0,0.0,0.0,0.0,0.0,0.0,0.0,1676478173.173136,0.0
433,177.0,27925.2413422157,42490.353285116355,-36410.36586885046,-31892.765390010525,186323.85120676176,9138.309554852194,-29095.489274917756,-8367.017908932914,-0.166,0.972,0.158,192.0,0.0,0.0,0.0,0.0,0.0,0.0,0.0,0.0,0.0,1676478173.173142,0.0
434,178.0,27797.478770909165,42402.823853829366,-36589.60450763757,-31932.439736418695,186211.51133912939,9040.02893448221,-29699.321651377875,-9034.709219301847,-0.166,0.972,0.158,192.0,0.0,0.0,0.0,0.0,0.0,0.0,0.0,0.0,0.0,1676478173.173149,0.0
435,179.0,27771.46134036319,42364.6023708108,-36539.6260070355,-31875.241622357564,186276.1078806052,9097.472917732348,-29752.675265392696,-9166.428049376971,-0.166,0.972,0.158,192.0,0.0,0.0,0.0,0.0,0.0,0.0,0.0,0.0,0.0,1676478173.173155,0.0
436,180.0,27949.157708782877,42491.24735489456,-36322.14353348536,-31776.133987442732,186438.82858023985,9229.750541418856,-29113.169504781905,-8572.653957921739,-0.166,0.972,0.158,192.0,0.0,0.0,0.0,0.0,0.0,0.0,0.0,0.0,0.0,1676478173.173161,0.0
437,181.0,28069.94653581936,42606.470597561674,-36283.29620162203,-31758.81138548987,186449.28919664494,9265.870960458633,-28846.177917263263,-8299.336826722245,-0.166,0.972,0.158,192.0,0.0,0.0,0.0,0.0,0.0,0.0,0.0,0.0,0.0,1676478173.173167,0.0
438,182.0,27972.403523016397,42545.47268694314,-36458.24330547373,-31807.58289189135,186318.50913983694,9173.535904113758,-29408.883083925615,-8966.268177779697,-0.166,0.972,0.158,192.0,0.0,0.0,0.0,0.0,0.0,0.0,0.0,0.0,0.0,1676478173.232098,0.0
439,183.0,27916.278292689123,42483.133671657284,-36452.074224004056,-31774.43525486413,186363.9949398035,9191.685520611469,-29624.890342341703,-9329.685190878534,-0.166,0.972,0.158,192.0,0.0,0.0,0.0,0.0,0.0,0.0,0.0,0.0,0.0,1676478173.232111,0.0
440,184.0,28048.041826253157,42583.78357693954,-36232.490686475125,-31683.351896208755,186535.8798546648,9332.546214168813,-29063.682742557856,-8948.498540937728,-0.166,0.972,0.158,192.0,0.0,0.0,0.0,0.0,0.0,0.0,0.0,0.0,0.0,1676478173.232118,0.0
441,185.0,28171.66932483546,42714.42952328081,-36148.49283081208,-31656.619209840206,186570.97209345963,9403.468299325503,-28676.48347335857,-8693.733357636138,-0.20800000000000002,0.9440000000000001,0.186,192.0,249.0,128.0,29.0,128.0,5.0,208.0,0.0,0.0,0.0,1676478173.232125,0.0
442,186.0,28084.69868715986,42665.52390641259,-36317.650832849846,-31715.09137333529,186449.33390013385,9297.230457929429,-29173.67567702242,-9293.02832997183,-0.20800000000000002,0.9440000000000001,0.186,192.0,0.0,0.0,0.0,0.0,0.0,0.0,0.0,0.0,0.0,1676478173.232131,0.0
443,187.0,27978.974935886257,42566.975065109145,-36361.16967930432,-31705.480123219506,186428.6585365127,9273.135277406607,-29549.699073994052,-9764.560731000987,-0.20800000000000002,0.9440000000000001,0.186,192.0,0.0,0.0,0.0,0.0,0.0,0.0,0.0,0.0,0.0,1676478173.232138,0.0
444,188.0,28076.27207950021,42630.38696412885,-36164.9884182201,-31627.517238559394,186550.76611647202,9385.51984852789,-29091.510664404712,-9514.556469268378,-0.20800000000000002,0.9440000000000001,0.186,192.0,0.0,0.0,0.0,0.0,0.0,0.0,0.0,0.0,0.0,1676478173.232144,0.0
445,189.0,28229.940322630446,42765.726776805735,-36041.003291726505,-31596.24714806642,186584.42784362173,9470.411773969146,-28596.911263097678,-9208.516384186314,-0.20800000000000002,0.9440000000000001,0.186,192.0,0.0,0.0,0.0,0.0,0.0,0.0,0.0,0.0,0.0,1676478173.23215,0.0
446,190.0,28165.075560221143,42735.797790980076,-36202.4946454161,-31667.258640200933,186424.9034434442,9358.116609825684,-28996.716916169753,-9583.288083468447,-0.20800000000000002,0.9440000000000001,0.186,192.0,0.0,0.0,0.0,0.0,0.0,0.0,0.0,0.0,0.0,1676478173.232156,0.0
447,191.0,28014.469506081285,42610.315097607985,-36324.75868758663,-31699.17693128311,186356.95414030008,9282.590065311202,-29521.44646900254,-9991.207419777802,-0.20800000000000002,0.9440000000000001,0.186,192.0,0.0,0.0,0.0,0.0,0.0,0.0,0.0,0.0,0.0,1676478173.232163,0.0
448,192.0,28079.334268490587,42630.27520540657,-36181.30519167247,-31643.45403235603,186451.07733620136,9373.315796055293,-29187.44435160689,-9722.539451425011,-0.20800000000000002,0.9440000000000001,0.186,192.0,0.0,0.0,0.0,0.0,0.0,0.0,0.0,0.0,0.0,1676478173.232175,0.0
449,193.0,28219.613816692094,42737.67533751432,-36047.731166807556,-31619.40355532212,186482.52624064998,9453.96089005004,-28609.22707429255,-9266.49680930338,-0.20800000000000002,0.9440000000000001,0.186,192.0,0.0,0.0,0.0,0.0,0.0,0.0,0.0,0.0,0.0,1676478173.232182,0.0
450,194.0,28157.52067059525,42718.89987217187,-36199.700677359186,-31702.686155162595,186331.51785510994,9356.529635969358,-28866.13802506185,-9475.865599616242,-0.20800000000000002,0.9440000000000001,0.186,192.0,0.0,0.0,0.0,0.0,0.0,0.0,0.0,0.0,0.0,1676478173.232188,0.0
451,195.0,27978.43849401933,42581.48134726064,-36362.42137699382,-31752.99993193149,186203.7999872923,9266.40740232556,-29473.59138412373,-9954.371744915456,-0.214,0.918,0.14200000000000002,192.0,249.0,80.0,28.0,176.0,4.0,112.0,0.0,0.0,0.0,1676478173.232194,0.0
452,196.0,27977.723238196762,42558.61551268286,-36263.26903859008,-31715.04666984638,186255.47722047297,9317.36937968366,-29287.624870255575,-9795.562600560499,-0.214,0.918,0.14200000000000002,192.0,0.0,0.0,0.0,0.0,0.0,0.0,0.0,0.0,0.0,1676478173.232201,0.0
453,197.0,28141.0921384206,42674.1740315168,-36096.21210053111,-31674.142977493168,186345.21947446102,9407.089281927263,-28674.20359542413,-9311.893202292109,-0.214,0.918,0.14200000000000002,192.0,0.0,0.0,0.0,0.0,0.0,0.0,0.0,0.0,0.0,1676478173.29242,0.0
454,198.0,28139.482812819817,42693.19536604826,-36190.58116562142,-31732.413975288153,186243.96607207847,9341.643374162124,-28769.019695403542,-9386.659787495111,-0.214,0.918,0.14200000000000002,192.0,0.0,0.0,0.0,0.0,0.0,0.0,0.0,0.0,0.0,1676478173.292433,0.0
455,199.0,27937.177173754833,42537.113134516854,-36397.44656055529,-31815.96479606209,186087.0791777467,9200.62621839359,-29442.813032008773,-9934.433988861321,-0.214,0.918,0.14200000000000002,192.0,0.0,0.0,0.0,0.0,0.0,0.0,0.0,0.0,0.0,1676478173.292441,0.0
456,200.0,27894.37358312292,42472.941276185666,-36346.797507619565,-31800.452685410106,186075.2774566743,9222.799148893255,-29434.67699702704,-9916.485538063711,-0.214,0.918,0.14200000000000002,192.0,0.0,0.0,0.0,0.0,0.0,0.0,0.0,0.0,0.0,1676478173.292447,0.0
457,201.0,28038.49763137074,42572.4512425007,-36163.22263040813,-31753.558725542873,186131.35798351266,9312.697865092501,-28827.73772808763,-9443.790846322876,-0.214,0.918,0.14200000000000002,192.0,0.0,0.0,0.0,0.0,0.0,0.0,0.0,0.0,0.0,1676478173.292454,0.0
458,202.0,28070.46062594183,42627.43653386075,-36199.45480817018,-31793.255423695497,186027.6682409845,9271.21302738345,-28755.787462686,-9372.689947210545,-0.214,0.918,0.14200000000000002,192.0,0.0,0.0,0.0,0.0,0.0,0.0,0.0,0.0,0.0,1676478173.29246,0.0
459,203.0,27884.94114696278,42488.47573858211,-36405.91787170385,-31882.1259596498,185838.70659335933,9117.142452853019,-29423.076441654735,-9902.985084412705,-0.214,0.918,0.14200000000000002,192.0,0.0,0.0,0.0,0.0,0.0,0.0,0.0,0.0,0.0,1676478173.292466,0.0
460,204.0,27811.515666427098,42398.912298549694,-36393.51265353116,-31879.153177637243,185814.29848841412,9108.984066126832,-29565.99349570197,-9981.327948728556,-0.214,0.918,0.14200000000000002,192.0,0.0,0.0,0.0,0.0,0.0,0.0,0.0,0.0,0.0,1676478173.292472,0.0
461,205.0,27934.33850220901,42482.61958153482,-36210.317755975455,-31830.873409613778,185910.94743143886,9193.25014272334,-28996.135770813915,-9488.851963144776,-0.152,0.972,0.108,192.0,251.0,64.0,30.0,96.0,3.0,96.0,0.0,0.0,0.0,1676478173.292479,0.0
462,206.0,28011.96611070229,42559.643692927806,-36203.03108728303,-31857.53904074896,185879.20795431233,9193.451308423437,-28769.757302970567,-9232.879785642599,-0.152,0.972,0.108,192.0,0.0,0.0,0.0,0.0,0.0,0.0,0.0,0.0,0.0,1676478173.292485,0.0
463,207.0,27863.3270100745,42442.29703453744,-36417.56313056507,-31958.70303615368,185723.37159196992,9038.956050748355,-29385.14553131408,-9704.188669227204,-0.152,0.972,0.108,192.0,0.0,0.0,0.0,0.0,0.0,0.0,0.0,0.0,0.0,1676478173.292491,0.0
464,208.0,27751.34477035341,42337.55676001987,-36446.57569486806,-31964.827414134434,185704.05968476055,9014.994980692265,-29674.287697587934,-9883.360252780945,-0.152,0.972,0.108,192.0,0.0,0.0,0.0,0.0,0.0,0.0,0.0,0.0,0.0,1676478173.292498,0.0
465,209.0,27852.329951802487,42398.554670638405,-36268.11936713688,-31908.65748031825,185828.38008742096,9109.98989462732,-29169.13827289799,-9384.491668282946,-0.152,0.972,0.108,192.0,0.0,0.0,0.0,0.0,0.0,0.0,0.0,0.0,0.0,1676478173.292504,0.0
466,210.0,27971.91178463838,42504.45723586765,-36208.28374723002,-31904.36594538283,185863.89700936046,9138.309554852194,-28807.062364466474,-8960.568482943592,-0.152,0.972,0.108,192.0,0.0,0.0,0.0,0.0,0.0,0.0,0.0,0.0,0.0,1676478173.29251,0.0
467,211.0,27853.55929774753,42431.52349370998,-36406.78958973761,-31995.337545315928,185740.9847666007,8993.313788570618,-29334.4741266339,-9386.659787495111,-0.152,0.972,0.108,192.0,0.0,0.0,0.0,0.0,0.0,0.0,0.0,0.0,0.0,1676478173.292516,0.0
468,212.0,27719.53823799351,42303.492701469986,-36497.3141547816,-32024.975958463667,185687.60880084144,8915.887345777433,-29773.015352847025,-9764.65013797881,-0.152,0.972,0.108,192.0,0.0,0.0,0.0,0.0,0.0,0.0,0.0,0.0,0.0,1676478173.353031,0.0
469,213.0,27781.944308512728,42333.08641112881,-36352.72071990022,-31972.42700724924,185845.68033762937,9006.948352688356,-29376.875385865616,-9367.102011096718,-0.152,0.972,0.108,192.0,0.0,0.0,0.0,0.0,0.0,0.0,0.0,0.0,0.0,1676478173.353046,0.0
470,214.0,27904.208350683257,42440.844171147844,-36264.23016360166,-31956.60197217488,185949.9959290023,9055.429286411916,-28919.312825121026,-8846.731048432714,-0.152,0.972,0.108,192.0,0.0,0.0,0.0,0.0,0.0,0.0,0.0,0.0,0.0,1676478173.353063,0.0
471,215.0,27831.49812597014,42400.38751368374,-36433.745793550705,-32032.061461456,185843.95925330633,8948.655003148915,-29322.068908461206,-9188.131593243073,-0.128,0.994,0.068,192.0,252.0,0.0,31.0,16.0,2.0,32.0,0.0,0.0,0.0,1676478173.35307,0.0
472,216.0,27689.698659145673,42272.04379702137,-36542.688196025876,-32062.549240893037,185864.88048611648,8883.298502361597,-29844.742100804106,-9733.871785863852,-0.128,0.994,0.068,192.0,0.0,0.0,0.0,0.0,0.0,0.0,0.0,0.0,0.0,1676478173.353077,0.0
473,217.0,27728.09895611989,42279.911611069634,-36418.993642210204,-32010.559083289994,186053.79743025274,8926.9067557939,-29559.08680666528,-9492.651759702178,-0.128,0.994,0.068,192.0,0.0,0.0,0.0,0.0,0.0,0.0,0.0,0.0,0.0,1676478173.353083,1.0
474,218.0,27865.316315331023,42385.23303094304,-36303.25630942063,-31978.12670208534,186148.1441435986,8986.787079189668,-29031.116250886473,-8928.449026161317,-0.128,0.994,0.068,192.0,0.0,0.0,0.0,0.0,0.0,0.0,0.0,0.0,0.0,1676478173.353089,1.0
475,219.0,27841.17643131929,42387.53526062194,-36426.63793881392,-32034.85542951291,186076.5291543638,8880.303368604586,-29280.159387607502,-9131.536976282237,-0.128,0.994,0.068,192.0,0.0,0.0,0.0,0.0,0.0,0.0,0.0,0.0,0.0,1676478173.353095,1.0
476,220.0,27683.73074337611,42259.41506140412,-36572.036036495694,-32078.910717834322,186029.54578751873,8767.11413468291,-29873.62055464036,-9763.890178667329,-0.128,0.994,0.068,192.0,0.0,0.0,0.0,0.0,0.0,0.0,0.0,0.0,0.0,1676478173.353102,1.0
477,221.0,27706.194246553692,42247.345119398255,-36470.06737829058,-32025.154772419308,186180.24124863642,8847.17808332182,-29708.418811371186,-9647.81756971092,-0.128,0.994,0.068,192.0,0.0,0.0,0.0,0.0,0.0,0.0,0.0,0.0,0.0,1676478173.353108,1.0
478,222.0,27865.271611842112,42369.78797552443,-36302.45164662023,-31965.766187401558,186366.36422471574,8934.752218097714,-29120.322063007603,-9057.440943412894,-0.128,0.994,0.068,192.0,0.0,0.0,0.0,0.0,0.0,0.0,0.0,0.0,0.0,1676478173.353114,1.0
479,223.0,27881.521330061118,42416.36901096928,-36366.221173551225,-31991.67185922526,186348.4828291515,8900.263476403175,-29184.5386248277,-9059.676117858424,-0.128,0.994,0.068,192.0,0.0,0.0,0.0,0.0,0.0,0.0,0.0,0.0,0.0,1676478173.353121,1.0
480,224.0,27741.979389426637,42305.28084102641,-36521.007003904226,-32038.319949903485,186249.62106342567,8795.88082979689,-29799.837446193393,-9705.283904705513,-0.128,0.994,0.068,192.0,0.0,0.0,0.0,0.0,0.0,0.0,0.0,0.0,0.0,1676478173.353127,1.0
