sample,packet,eeg1,eeg2,eeg3,eeg4,eeg5,eeg6,eeg7,eeg8,accel1,accel2,accel3,other1,other2,other3,other4,other5,other6,other7,analog1,analog2,analog3,timestamp,marker
0,0.0,0.0,0.0,0.0,0.0,0.0,0.0,0.0,0.0,-0.032,0.864,0.442,192.0,255.0,0.0,27.0,0.0,13.0,208.0,0.0,0.0,0.0,1677898989.842775,0.0
1,1.0,37171.73334023158,32657.239753870937,-72520.3689957105,-64530.648533183165,6455.988461493071,-711.1654533345048,-160045.10641635733,187500.0,-0.032,0.864,0.442,192.0,0.0,0.0,0.0,0.0,0.0,0.0,0.0,0.0,0.0,1677898989.858775,0.0
2,2.0,34133.527771655055,32528.851333719653,-71705.0220614698,-63837.16330971281,7173.479458508427,-717.289831315259,-162551.47457736428,187500.0,-0.032,0.864,0.442,192.0,0.0,0.0,0.0,0.0,0.0,0.0,0.0,0.0,0.0,1677898989.861742,0.0
3,3.0,32665.576954552766,32638.084308872738,-71489.1712652649,-63600.011301042,7422.030856851442,-270.05377650901994,-165528.23520043318,187500.0,-0.032,0.864,0.442,192.0,0.0,0.0,0.0,0.0,0.0,0.0,0.0,0.0,0.0,1677898989.865753,0.0
4,4.0,35367.12054814345,32743.495135723966,-72280.9594608497,-64274.20696904743,6728.165653725345,-209.8381769464227,-163356.00326728862,187500.0,-0.032,0.864,0.442,192.0,0.0,0.0,0.0,0.0,0.0,0.0,0.0,0.0,0.0,1677898989.868748,0.0
5,5.0,37349.18383946226,32665.26403013039,-72618.11317421355,-64625.41992967367,6372.0576610633925,-666.3278539571588,-159803.30524483984,187500.0,-0.032,0.864,0.442,192.0,0.0,0.0,0.0,0.0,0.0,0.0,0.0,0.0,0.0,1677898989.872756,0.0
6,6.0,34736.64489229261,32535.512153567335,-71828.58250481874,-63965.81995079756,7067.934521190467,-770.3305209077026,-161494.75115475073,187500.0,-0.032,0.864,0.442,192.0,0.0,0.0,0.0,0.0,0.0,0.0,0.0,0.0,0.0,1677898989.876853,0.0
7,7.0,32597.605299664177,32606.70245965749,-71445.13832868796,-63580.29706243242,7454.016203166986,-347.5919780244801,-164974.26956585285,187500.0,-0.032,0.864,0.442,192.0,0.0,0.0,0.0,0.0,0.0,0.0,0.0,0.0,0.0,1677898989.880842,0.0
8,8.0,34755.01802623487,32734.979121086493,-72120.8762670608,-64137.74956914778,6868.31109146012,-193.87903140533345,-163726.93046652444,187500.0,-0.028,0.894,0.396,192.0,255.0,32.0,27.0,240.0,12.0,96.0,0.0,0.0,0.0,1677898989.886954,0.0
9,9.0,37356.269342454594,32693.069600232793,-72657.34048573262,-64652.733761398056,6335.289041434413,-611.5884317861119,-159811.39657633266,187500.0,-0.028,0.894,0.396,192.0,0.0,0.0,0.0,0.0,0.0,0.0,0.0,0.0,0.0,1677898989.889847,0.0
10,10.0,35355.698806726796,32535.668615778523,-71993.51602715446,-64119.19762124987,6885.3207689906085,-851.5120567693779,-160526.4512332024,187500.0,-0.028,0.894,0.396,192.0,0.0,0.0,0.0,0.0,0.0,0.0,0.0,0.0,0.0,1677898989.89386,0.0
11,11.0,32678.94329773704,32589.513968171355,-71405.97807240226,-63568.38358263774,7461.14640964823,-447.526627484158,-164292.60841519933,187500.0,-0.028,0.894,0.396,192.0,0.0,0.0,0.0,0.0,0.0,0.0,0.0,0.0,0.0,1677898989.897843,0.0
12,12.0,34167.97180986068,32732.76629838542,-71939.80478522835,-63995.704233134304,7039.078419098666,-197.45531051818259,-164040.39133076565,187500.0,-0.028,0.894,0.396,192.0,0.0,0.0,0.0,0.0,0.0,0.0,0.0,0.0,0.0,1677898989.900843,0.0
13,13.0,37191.60404105235,32714.43786793207,-72649.42796819544,-64646.36351422829,6357.126695767248,-552.7586403797436,-160030.4213202502,187500.0,-0.028,0.894,0.396,192.0,0.0,0.0,0.0,0.0,0.0,0.0,0.0,0.0,0.0,1677898989.904843,0.0
14,14.0,35951.61866564974,32549.504345596357,-72144.74793013906,-64263.70164915343,6753.199607515288,-890.1805746770591,-159716.69223507552,187500.0,-0.028,0.894,0.396,192.0,0.0,0.0,0.0,0.0,0.0,0.0,0.0,0.0,0.0,1677898989.908815,0.0
15,15.0,32890.99429738454,32548.319703140227,-71437.42697685087,-63617.356254739316,7415.258278281484,-542.9685763083191,-163503.94946383827,187500.0,-0.028,0.894,0.396,192.0,0.0,0.0,0.0,0.0,0.0,0.0,0.0,0.0,0.0,1677898989.912878,0.0
16,16.0,33611.94981479047,32688.554547852822,-71799.30171958229,-63885.73365041419,7140.667097648036,-220.96934568516562,-164228.07892895688,187500.0,-0.028,0.894,0.396,192.0,0.0,0.0,0.0,0.0,0.0,0.0,0.0,0.0,0.0,1677898989.915816,0.0
17,17.0,36856.32787422274,32729.86057160623,-72585.81490347564,-64588.42779260014,6420.94092618715,-459.685976467845,-160397.2581502507,187500.0,-0.022,0.91,0.38,192.0,255.0,80.0,28.0,112.0,11.0,224.0,0.0,0.0,0.0,1677898989.919818,0.0
18,18.0,36483.053741819116,32568.592735361188,-72299.55611223652,-64404.4505839885,6620.899632084326,-873.8861529691402,-159056.46640735466,187500.0,-0.022,0.91,0.38,192.0,0.0,0.0,0.0,0.0,0.0,0.0,0.0,0.0,0.0,1677898989.923922,0.0
19,19.0,33244.04010105611,32543.692892037976,-71478.75535234873,-63671.49217981007,7375.65098710668,-628.5087023387792,-162615.86995314003,187500.0,-0.022,0.91,0.38,192.0,0.0,0.0,0.0,0.0,0.0,0.0,0.0,0.0,0.0,1677898989.928814,0.0
20,20.0,33176.78370199009,32676.886937247153,-71655.69176145694,-63777.21593108367,7275.090488802253,-256.0615844799977,-164261.71830436212,187500.0,-0.022,0.91,0.38,192.0,0.0,0.0,0.0,0.0,0.0,0.0,0.0,0.0,0.0,1677898989.932814,0.0
21,21.0,36413.53981656311,32750.80415616085,-72497.63727159945,-64512.58832366328,6480.821249582917,-412.72496136724493,-160840.5155945439,187500.0,-0.022,0.91,0.38,192.0,0.0,0.0,0.0,0.0,0.0,0.0,0.0,0.0,0.0,1677898989.936981,0.0
22,22.0,36938.82816300728,32620.538189475323,-72435.58882899152,-64521.774890634406,6481.223580983113,-888.1242141871709,-158565.06330550474,187500.0,-0.022,0.91,0.38,192.0,0.0,0.0,0.0,0.0,0.0,0.0,0.0,0.0,0.0,1677898989.940855,0.0
23,23.0,33727.374223157676,32537.4791070794,-71597.97955727334,-63794.58323652545,7235.773770305368,-778.6453698450769,-161628.07931042663,187500.0,-0.022,0.91,0.38,192.0,0.0,0.0,0.0,0.0,0.0,0.0,0.0,0.0,0.0,1677898989.944835,0.0
24,24.0,32867.99435234003,32663.36413185169,-71556.56177479765,-63701.242351680085,7324.666658004125,-326.6260417254021,-164080.11038066275,187500.0,-0.022,0.91,0.38,192.0,0.0,0.0,0.0,0.0,0.0,0.0,0.0,0.0,0.0,1677898989.949892,0.0
25,25.0,35888.251470118936,32766.20450809056,-72378.14484574138,-64398.99675834141,6599.777233574061,-329.30825106003897,-161281.24729171363,187500.0,-0.022,0.91,0.38,192.0,0.0,0.0,0.0,0.0,0.0,0.0,0.0,0.0,0.0,1677898989.952785,0.0
26,26.0,37259.173364540744,32670.51669007739,-72537.69159766336,-64585.85734198777,6401.919591655683,-788.122509494127,-158224.8474031505,187500.0,-0.022,0.91,0.38,192.0,0.0,0.0,0.0,0.0,0.0,0.0,0.0,0.0,0.0,1677898989.956811,0.0
27,27.0,34294.90736662238,32537.21088614594,-71726.30092219125,-63894.56258947404,7128.664210875537,-807.8590998481632,-160578.66490824998,187500.0,-0.018000000000000002,0.906,0.362,192.0,255.0,112.0,28.0,80.0,11.0,80.0,0.0,0.0,0.0,1677898989.960878,0.0
28,28.0,32677.55748958081,32624.203875565992,-71492.9710618223,-63644.893603908255,7394.024121048942,-382.9300860083206,-163670.06762863012,187500.0,-0.018000000000000002,0.906,0.362,192.0,0.0,0.0,0.0,0.0,0.0,0.0,0.0,0.0,0.0,1677898989.964817,0.0
29,29.0,35273.15381445334,32752.81581316183,-72245.93427728824,-64279.07964933869,6740.347354453487,-312.34327701846087,-161686.39501171053,187500.0,-0.018000000000000002,0.906,0.362,192.0,0.0,0.0,0.0,0.0,0.0,0.0,0.0,0.0,0.0,1677898989.967965,0.0
30,30.0,37390.06518007102,32694.187187455558,-72620.75068005928,-64657.27116552248,6352.0975532648035,-746.7494305073536,-158048.06745625348,187500.0,-0.018000000000000002,0.906,0.362,192.0,0.0,0.0,0.0,0.0,0.0,0.0,0.0,0.0,0.0,1677898989.971962,0.0
31,31.0,34885.61926908723,32542.038862948284,-71875.23059549696,-64040.385370300464,6982.081470737633,-888.9512287320172,-159534.83844218715,187500.0,-0.018000000000000002,0.906,0.362,192.0,0.0,0.0,0.0,0.0,0.0,0.0,0.0,0.0,0.0,1677898989.975838,0.0
32,32.0,32626.282587800335,32609.16115154757,-71436.75642451721,-63612.952961081624,7428.356400532294,-460.24477007922775,-163096.41010718467,187500.0,-0.018000000000000002,0.906,0.362,192.0,0.0,0.0,0.0,0.0,0.0,0.0,0.0,0.0,0.0,1677898989.980941,0.0
33,33.0,34655.10572851965,32730.151144284147,-72096.91519700471,-64163.16350259346,6866.768821092704,-302.2179367802068,-162043.46412938405,187500.0,-0.018000000000000002,0.906,0.362,192.0,0.0,0.0,0.0,0.0,0.0,0.0,0.0,0.0,0.0,1677898989.984834,0.0
34,34.0,37359.19742097824,32703.820789315796,-72651.23845949632,-64694.37506131829,6324.873128518239,-690.4900897133458,-158094.87200914288,187500.0,-0.018000000000000002,0.906,0.362,192.0,0.0,0.0,0.0,0.0,0.0,0.0,0.0,0.0,0.0,1677898989.988808,0.0
35,35.0,35510.99872720226,32549.034958962795,-72012.78323087493,-64184.397659826005,6860.1974082228435,-935.1299327766816,-158609.23035254842,187500.0,-0.018000000000000002,0.906,0.362,192.0,0.0,0.0,0.0,0.0,0.0,0.0,0.0,0.0,0.0,1677898989.99296,0.0
36,36.0,32746.66908343662,32585.73652335841,-71411.20838060479,-63617.222144272586,7437.677077970157,-543.5273699197019,-162396.88991271137,187500.0,-0.018000000000000002,0.906,0.362,192.0,0.0,0.0,0.0,0.0,0.0,0.0,0.0,0.0,0.0,1677898989.995864,0.0
37,37.0,34076.776692483036,32720.897522079653,-71921.29754081936,-64017.09485257803,7018.24659326632,-284.7835761050673,-162345.27973476407,187500.0,-0.022,0.912,0.356,192.0,255.0,80.0,28.0,128.0,11.0,32.0,0.0,0.0,0.0,1677898989.999843,0.0
38,38.0,37168.11235762982,32728.228894260992,-72630.2948749417,-64663.57435745888,6342.575710126843,-602.8712514485421,-158352.76643666823,187500.0,-0.022,0.912,0.356,192.0,0.0,0.0,0.0,0.0,0.0,0.0,0.0,0.0,0.0,1677898990.003971,0.0
39,39.0,36102.49294072306,32554.712302054442,-72184.57873875841,-64329.594591807676,6688.84893522846,-972.2338285724913,-157820.52669769846,187500.0,-0.022,0.912,0.356,192.0,0.0,0.0,0.0,0.0,0.0,0.0,0.0,0.0,0.0,1677898990.007846,0.0
40,40.0,33000.026106837526,32550.688988052487,-71452.7155700583,-63656.11417962482,7367.246731191484,-650.547522371712,-161562.47694045032,187500.0,-0.022,0.912,0.356,192.0,0.0,0.0,0.0,0.0,0.0,0.0,0.0,0.0,0.0,1677898990.012846,0.0
41,41.0,33574.13066317209,32704.603100371733,-71762.51074820885,-63879.27399626661,7130.832330087702,-311.96329736272065,-162477.26678577266,187500.0,-0.022,0.912,0.356,192.0,0.0,0.0,0.0,0.0,0.0,0.0,0.0,0.0,0.0,1677898990.016951,0.0
42,42.0,36830.51160937687,32746.847897392265,-72577.09772313807,-64606.30918816438,6383.054719335404,-550.3223002341152,-158692.33413843325,187500.0,-0.022,0.912,0.356,192.0,0.0,0.0,0.0,0.0,0.0,0.0,0.0,0.0,0.0,1677898990.020855,0.0
43,43.0,36631.670490702454,32583.50134891288,-72341.73385402368,-64469.1141806977,6544.791942214006,-979.1405176091812,-157134.6410673429,187500.0,-0.022,0.912,0.356,192.0,0.0,0.0,0.0,0.0,0.0,0.0,0.0,0.0,0.0,1677898990.02398,0.0
44,44.0,33390.44402723837,32556.902773011065,-71498.96132933634,-63715.927447787224,7311.680294475591,-726.8787296865856,-160607.18573417494,187500.0,-0.022,0.912,0.356,192.0,0.0,0.0,0.0,0.0,0.0,0.0,0.0,0.0,0.0,1677898990.027878,0.0
45,45.0,33162.36682681642,32694.589518855755,-71621.56064767369,-63769.90691064679,7252.8281513247675,-309.72812291719,-162432.07155848402,187500.0,-0.022,0.912,0.356,192.0,0.0,0.0,0.0,0.0,0.0,0.0,0.0,0.0,0.0,1677898990.031945,0.0
46,46.0,36359.158022303345,32762.270601066426,-72475.91137598889,-64517.55041093236,6473.512229146031,-436.9542523567978,-159111.98814058164,187500.0,-0.022,0.912,0.356,192.0,0.0,0.0,0.0,0.0,0.0,0.0,0.0,0.0,0.0,1677898990.035854,0.0
47,47.0,37050.16220213917,32626.03671861133,-72463.21558513827,-64576.06727791635,6423.846652966339,-915.0357145113605,-156643.95322131555,187500.0,-0.02,0.92,0.35000000000000003,192.0,255.0,96.0,28.0,192.0,10.0,240.0,0.0,0.0,0.0,1677898990.040877,0.0
48,48.0,33872.86172781727,32526.39264182957,-71623.75111863032,-63851.915461053315,7180.073223122743,-838.7715624298528,-159566.5108640803,187500.0,-0.02,0.92,0.35000000000000003,192.0,0.0,0.0,0.0,0.0,0.0,0.0,0.0,0.0,0.0,1677898990.044887,0.0
49,49.0,32855.49972718951,32644.253390342405,-71532.37718729701,-63724.532869402516,7313.848413687756,-412.2555747336835,-162161.54839534147,187500.0,-0.02,0.92,0.35000000000000003,192.0,0.0,0.0,0.0,0.0,0.0,0.0,0.0,0.0,0.0,1677898990.049035,0.0
50,50.0,35800.297355687304,32753.03933060638,-72338.2246301442,-64418.442776017524,6605.141652243335,-421.4868451937253,-159521.22622981385,187500.0,-0.02,0.92,0.35000000000000003,192.0,0.0,0.0,0.0,0.0,0.0,0.0,0.0,0.0,0.0,1677898990.05286,0.0
51,51.0,37327.43559210725,32641.41471879658,-72567.91115616694,-64676.493665754046,6333.6126606002645,-879.7870135053413,-156309.57112426416,187500.0,-0.02,0.92,0.35000000000000003,192.0,0.0,0.0,0.0,0.0,0.0,0.0,0.0,0.0,0.0,1677898990.056884,0.0
52,52.0,34445.02168238422,32515.395583557558,-71747.62448640162,-63973.41954391236,7066.146381634043,-914.2534034554247,-158515.3530258361,187500.0,-0.02,0.92,0.35000000000000003,192.0,0.0,0.0,0.0,0.0,0.0,0.0,0.0,0.0,0.0,1677898990.059966,0.0
53,53.0,32696.668231090098,32613.206817293983,-71454.36959914799,-63654.01311564602,7380.434260420116,-449.6276914629569,-161754.4784253214,187500.0,-0.02,0.92,0.35000000000000003,192.0,0.0,0.0,0.0,0.0,0.0,0.0,0.0,0.0,0.0,1677898990.063909,0.0
54,54.0,35185.95965933319,32722.86447559172,-72212.38430886083,-64279.124352827595,6716.252173930666,-368.2896933900945,-159970.3621828988,187500.0,-0.02,0.92,0.35000000000000003,192.0,0.0,0.0,0.0,0.0,0.0,0.0,0.0,0.0,0.0,1677898990.068902,0.0
55,55.0,37428.24195960069,32647.203820610503,-72652.62426765254,-64710.4236138372,6264.09873534426,-830.2108443034703,-156242.13591124248,187500.0,-0.02,0.92,0.35000000000000003,192.0,0.0,0.0,0.0,0.0,0.0,0.0,0.0,0.0,0.0,1677898990.073008,0.0
56,56.0,35048.4740791886,32507.10308636464,-71908.37823252419,-64099.63984485148,6903.403330254952,-981.0627676323376,-157555.7926363698,187500.0,-0.02,0.92,0.35000000000000003,192.0,0.0,0.0,0.0,0.0,0.0,0.0,0.0,0.0,0.0,1677898990.076908,0.0
57,57.0,32678.04922795883,32563.854165536664,-71450.97213399078,-63664.74195298457,7359.043640976387,-571.7576231667547,-161174.13773228382,187500.0,-0.016,0.912,0.35000000000000003,192.0,255.0,128.0,28.0,128.0,10.0,240.0,0.0,0.0,0.0,1677898990.079907,0.0
58,58.0,34574.661800224996,32726.28429249338,-72047.13786210274,-64152.389961766006,6869.2945682161535,-366.70271953376766,-160338.87539373344,187500.0,-0.016,0.912,0.35000000000000003,192.0,0.0,0.0,0.0,0.0,0.0,0.0,0.0,0.0,0.0,1677898990.084009,0.0
59,59.0,37369.79214785006,32708.134675995672,-72641.20252623588,-64714.871610983806,6290.630256012709,-726.5658052642113,-156358.83436904364,187500.0,-0.016,0.912,0.35000000000000003,192.0,0.0,0.0,0.0,0.0,0.0,0.0,0.0,0.0,0.0,1677898990.087932,0.0
60,60.0,35673.920592537,32546.44215660598,-72038.64419920972,-64239.829986075165,6777.652415949395,-1000.0617504193486,-156662.10283781326,187500.0,-0.016,0.912,0.35000000000000003,192.0,0.0,0.0,0.0,0.0,0.0,0.0,0.0,0.0,0.0,1677898990.09193,0.0
61,61.0,32837.97595953655,32573.57717437472,-71412.08009863856,-63661.612708760826,7374.064013250353,-636.6000338316004,-160451.46113055482,187500.0,-0.016,0.912,0.35000000000000003,192.0,0.0,0.0,0.0,0.0,0.0,0.0,0.0,0.0,0.0,1677898990.096955,0.0
62,62.0,34025.01005232454,32707.777048084386,-71888.55223519233,-64037.34553305454,6996.76656684477,-367.4403271007928,-160573.3898965585,187500.0,-0.016,0.912,0.35000000000000003,192.0,0.0,0.0,0.0,0.0,0.0,0.0,0.0,0.0,0.0,1677898990.100928,0.0
63,63.0,37156.4223952797,32720.472838935002,-72625.19867720589,-64699.627721265286,6300.934410206605,-666.0819847681505,-156581.2565781184,187500.0,-0.016,0.912,0.35000000000000003,192.0,0.0,0.0,0.0,0.0,0.0,0.0,0.0,0.0,0.0,1677898990.104927,0.0
64,64.0,36271.20390787171,32575.83470056471,-72186.56804401494,-64375.46037142997,6626.2640507536,-1024.4251518756332,-155841.1232639698,187500.0,-0.016,0.912,0.35000000000000003,192.0,0.0,0.0,0.0,0.0,0.0,0.0,0.0,0.0,0.0,1677898990.107923,0.0
65,65.0,33129.19683804474,32559.24970617887,-71437.42697685087,-63707.16556396074,7325.985410926987,-732.7795902227867,-159540.9628201679,187500.0,-0.016,0.912,0.35000000000000003,192.0,0.0,0.0,0.0,0.0,0.0,0.0,0.0,0.0,0.0,1677898990.111952,0.0
66,66.0,33534.94805514193,32703.50786489342,-71710.45353537245,-63896.9318743863,7127.993658541877,-388.11569072195186,-160643.35085670362,187500.0,-0.016,0.912,0.35000000000000003,192.0,0.0,0.0,0.0,0.0,0.0,0.0,0.0,0.0,0.0,1677898990.115964,0.0
67,67.0,36789.29499260128,32752.18996431708,-72528.72854813679,-64620.79311857142,6378.584370444342,-591.360103054059,-156930.72610267712,187500.0,-0.022,0.918,0.34600000000000003,192.0,255.0,80.0,28.0,176.0,10.0,208.0,0.0,0.0,0.0,1677898990.122053,0.0
68,68.0,36777.40386455105,32596.4430089525,-72341.77855751259,-64522.66896041262,6485.157488007247,-1040.5407596279097,-155171.26383438872,187500.0,-0.022,0.918,0.34600000000000003,192.0,0.0,0.0,0.0,0.0,0.0,0.0,0.0,0.0,0.0,1677898990.125946,0.0
69,69.0,33535.328034797676,32543.469374593424,-71517.35681502304,-63794.31501559199,7246.234386710452,-848.7404404569198,-158524.42783408499,187500.0,-0.022,0.918,0.34600000000000003,192.0,0.0,0.0,0.0,0.0,0.0,0.0,0.0,0.0,0.0,1677898990.128978,0.0
70,70.0,33134.69536718075,32675.210556413003,-71603.74630734281,-63813.023425701074,7238.903014529111,-437.58010120154637,-160515.29771271918,187500.0,-0.022,0.918,0.34600000000000003,192.0,0.0,0.0,0.0,0.0,0.0,0.0,0.0,0.0,0.0,1677898990.134056,0.0
71,71.0,36286.313687123504,32763.54465050038,-72445.93768667433,-64535.65532394115,6471.366461678322,-533.2679192147159,-157334.82329068464,187500.0,-0.022,0.918,0.34600000000000003,192.0,0.0,0.0,0.0,0.0,0.0,0.0,0.0,0.0,0.0,1677898990.136946,0.0
72,72.0,37152.577895233386,32622.50514298739,-72503.58283562456,-64643.636601404745,6356.143219011214,-1029.0296112334265,-154699.59732289283,187500.0,-0.022,0.918,0.34600000000000003,192.0,0.0,0.0,0.0,0.0,0.0,0.0,0.0,0.0,0.0,1677898990.14095,0.0
73,73.0,34026.03823256949,32517.34018532517,-71667.89581392954,-63917.92016242984,7102.602076840649,-949.792677139363,-157490.70435651593,187500.0,-0.022,0.918,0.34600000000000003,192.0,0.0,0.0,0.0,0.0,0.0,0.0,0.0,0.0,0.0,1677898990.144032,0.0
74,74.0,32852.571648665864,32628.87539015715,-71532.55600125265,-63749.835044125924,7281.617198183203,-505.3282386455821,-160225.44029062276,187500.0,-0.022,0.918,0.34600000000000003,192.0,0.0,0.0,0.0,0.0,0.0,0.0,0.0,0.0,0.0,1677898990.147946,0.0
75,75.0,35715.47248547942,32761.935324899594,-72305.59108323944,-64408.8538776462,6608.427358678265,-472.98526441875276,-157763.21682491503,187500.0,-0.022,0.918,0.34600000000000003,192.0,0.0,0.0,0.0,0.0,0.0,0.0,0.0,0.0,0.0,1677898990.154974,0.0
76,76.0,37412.37222103742,32693.65074558863,-72550.2756297917,-64677.43243902117,6320.760407538463,-925.0716477717934,-154453.63872690665,187500.0,-0.022,0.918,0.34600000000000003,192.0,0.0,0.0,0.0,0.0,0.0,0.0,0.0,0.0,0.0,1677898990.158087,0.0
77,77.0,34630.027071240795,32552.6335898201,-71769.35038201218,-64021.63225670246,7007.629514650049,-1000.5758405418206,-156474.54935008878,187500.0,-0.016,0.922,0.34800000000000003,192.0,255.0,128.0,28.0,208.0,10.0,224.0,0.0,0.0,0.0,1677898990.16203,0.0
78,78.0,32753.19579281757,32638.196067595014,-71446.16650893289,-63689.999424219066,7346.92899548161,-563.9121608629418,-159780.10413409522,187500.0,-0.016,0.922,0.34800000000000003,192.0,0.0,0.0,0.0,0.0,0.0,0.0,0.0,0.0,0.0,1677898990.165045,0.0
79,79.0,35125.47583883713,32769.06553138084,-72157.44372098967,-64283.885274396576,6728.076246747523,-449.87356065196525,-158172.2761001916,187500.0,-0.016,0.922,0.34800000000000003,192.0,0.0,0.0,0.0,0.0,0.0,0.0,0.0,0.0,0.0,1677898990.168968,0.0
80,80.0,37487.20586147378,32709.833408574275,-72631.63597960901,-64746.16405322123,6247.916072358617,-877.5965425487212,-154369.43970554348,187500.0,-0.016,0.922,0.34800000000000003,192.0,0.0,0.0,0.0,0.0,0.0,0.0,0.0,0.0,0.0,1677898990.17297,0.0
81,81.0,35237.27926460258,32541.927104226008,-71937.43550031609,-64184.06238365918,6830.670753797383,-1077.68935891263,-155447.7996167898,187500.0,-0.016,0.922,0.34800000000000003,192.0,0.0,0.0,0.0,0.0,0.0,0.0,0.0,0.0,0.0,1677898990.176052,0.0
82,82.0,32765.44454877908,32603.349697989193,-71419.2550086087,-63693.39688937627,7349.097114693775,-667.1548685020052,-159111.07171905896,187500.0,-0.016,0.922,0.34800000000000003,192.0,0.0,0.0,0.0,0.0,0.0,0.0,0.0,0.0,0.0,1677898990.179963,0.0
83,83.0,34516.994299530306,32751.586467216788,-72004.37897495973,-64174.00409865429,6858.029289010678,-461.18354334635063,-158459.47366469787,187500.0,-0.016,0.922,0.34800000000000003,192.0,0.0,0.0,0.0,0.0,0.0,0.0,0.0,0.0,0.0,1677898990.184098,0.0
84,84.0,37396.7259999187,32743.651597935153,-72628.88671504101,-64762.79375109598,6265.037508611383,-820.4878354654116,-154445.12271226916,187500.0,-0.016,0.922,0.34800000000000003,192.0,0.0,0.0,0.0,0.0,0.0,0.0,0.0,0.0,0.0,1677898990.187969,0.0
85,85.0,35867.39729254214,32581.377933189626,-72057.73258897456,-64321.61501903713,6732.926575294326,-1108.0877313718477,-154514.30136135835,187500.0,-0.016,0.922,0.34800000000000003,192.0,0.0,0.0,0.0,0.0,0.0,0.0,0.0,0.0,0.0,1677898990.191975,0.0
86,86.0,32957.937772028185,32616.760744662377,-71375.55734819858,-63697.80018303397,7375.472173151037,-735.3053373462365,-158297.44586914135,187500.0,-0.002,0.914,0.35000000000000003,192.0,255.0,240.0,28.0,144.0,10.0,240.0,0.0,0.0,0.0,1677898990.196994,0.0
87,87.0,33977.356133145826,32750.75945267194,-71814.2997401118,-64046.55445177013,7024.683895669448,-459.2389415787389,-158613.20896306145,187500.0,-0.002,0.914,0.35000000000000003,192.0,0.0,0.0,0.0,0.0,0.0,0.0,0.0,0.0,0.0,1677898990.201102,0.0
88,88.0,37139.144496815745,32761.980028388505,-72585.34551684208,-64745.44879739867,6306.29882887588,-738.1887123809711,-154634.17376687215,187500.0,-0.002,0.914,0.35000000000000003,192.0,0.0,0.0,0.0,0.0,0.0,0.0,0.0,0.0,0.0,1677898990.204031,0.0
89,89.0,36422.234645156226,32602.477979955434,-72207.2434076361,-64477.27256742389,6570.58585531543,-1135.7591910075178,-153642.18099620118,187500.0,-0.002,0.914,0.35000000000000003,192.0,0.0,0.0,0.0,0.0,0.0,0.0,0.0,0.0,0.0,1677898990.208096,0.0
90,90.0,33238.116888775454,32586.809407092263,-71432.24137213724,-63776.16539909428,7269.882532344167,-845.3206235552578,-157265.80110380665,187500.0,-0.002,0.914,0.35000000000000003,192.0,0.0,0.0,0.0,0.0,0.0,0.0,0.0,0.0,0.0,1677898990.212019,0.0
91,91.0,33483.04730451671,32735.090879808773,-71667.3146685737,-63930.66065676936,7094.980131981389,-484.00467443521916,-158509.34040657766,187500.0,-0.002,0.914,0.35000000000000003,192.0,0.0,0.0,0.0,0.0,0.0,0.0,0.0,0.0,0.0,1677898990.219118,1.0
92,92.0,36742.758660645326,32802.30257538588,-72471.32926837556,-64633.46655767758,6349.817675330362,-660.516400398779,-154836.68057163723,187500.0,-0.002,0.914,0.35000000000000003,192.0,0.0,0.0,0.0,0.0,0.0,0.0,0.0,0.0,0.0,1677898990.22202,0.0
93,93.0,36923.24899712193,32653.75288173591,-72313.19067635425,-64551.48035901551,6424.22663262208,-1102.365684791289,-152849.34226862696,187500.0,-0.002,0.914,0.35000000000000003,192.0,0.0,0.0,0.0,0.0,0.0,0.0,0.0,0.0,0.0,1677898990.226104,0.0
94,94.0,33695.679449520045,32589.424561193537,-71475.24612846925,-63807.39078609834,7185.683510981025,-943.7577061364301,-156078.05175519607,187500.0,-0.002,0.914,0.35000000000000003,192.0,0.0,0.0,0.0,0.0,0.0,0.0,0.0,0.0,0.0,1677898990.229017,0.0
95,95.0,33148.285227809574,32722.3727372137,-71512.66294868743,-63778.512332262086,7202.872002467157,-523.5672621211127,-158206.51897269714,187500.0,-0.002,0.914,0.35000000000000003,192.0,0.0,0.0,0.0,0.0,0.0,0.0,0.0,0.0,0.0,1677898990.23213,0.0
96,96.0,36276.098939907424,32817.23354068203,-72337.91170572182,-64482.90520702663,6491.728900877107,-591.6953792208885,-155139.0102671397,187500.0,-0.014,0.914,0.34600000000000003,192.0,255.0,144.0,28.0,144.0,10.0,208.0,0.0,0.0,0.0,1677898990.236088,0.0
97,97.0,37332.33062414296,32679.569146581787,-72441.75791046118,-64631.253734976504,6344.92264329465,-1069.68743439763,-152347.67971607205,187500.0,-0.014,0.914,0.34600000000000003,192.0,0.0,0.0,0.0,0.0,0.0,0.0,0.0,0.0,0.0,1677898990.240042,0.0
98,98.0,34241.21847644073,32562.222488191426,-71626.52273494277,-63929.297200357585,7069.946178191445,-1049.593216132309,-155013.6393324899,187500.0,-0.014,0.914,0.34600000000000003,192.0,0.0,0.0,0.0,0.0,0.0,0.0,0.0,0.0,0.0,1677898990.244152,0.0
99,99.0,32871.70474191961,32675.14350117964,-71465.79134056465,-63737.22866025313,7275.179895780075,-621.2220336463492,-157915.1192802333,187500.0,-0.014,0.914,0.34600000000000003,192.0,0.0,0.0,0.0,0.0,0.0,0.0,0.0,0.0,0.0,1677898990.248044,0.0
100,100.0,35602.28325155774,32782.92361294313,-72276.98085033665,-64426.422348788066,6575.190314673223,-596.5010042787795,-155646.3948662752,187500.0,-0.014,0.914,0.34600000000000003,192.0,0.0,0.0,0.0,0.0,0.0,0.0,0.0,0.0,0.0,1677898990.253041,0.0
101,101.0,37415.07678211651,32702.07735324828,-72582.90917669644,-64746.94636427717,6258.466095741523,-1064.8594575952839,-152257.0880957947,187500.0,-0.014,0.914,0.34600000000000003,192.0,0.0,0.0,0.0,0.0,0.0,0.0,0.0,0.0,0.0,1677898990.257048,0.0
102,102.0,34714.20374085948,32568.525680127823,-71801.11221088318,-64094.09661222657,6943.457656318862,-1123.7116007461073,-154168.05048800117,187500.0,-0.014,0.914,0.34600000000000003,192.0,0.0,0.0,0.0,0.0,0.0,0.0,0.0,0.0,0.0,1677898990.260071,0.0
103,103.0,32689.023934486384,32649.528402033855,-71451.75444504672,-63745.47645395714,7324.4431405595715,-689.5289647017676,-157621.73028251296,187500.0,-0.014,0.914,0.34600000000000003,192.0,0.0,0.0,0.0,0.0,0.0,0.0,0.0,0.0,0.0,1677898990.264041,0.0
104,104.0,34912.19549324459,32771.278354081915,-72161.84701464737,-64339.518766345835,6720.119025721434,-575.7585854242546,-156242.04650426467,187500.0,-0.014,0.914,0.34600000000000003,192.0,0.0,0.0,0.0,0.0,0.0,0.0,0.0,0.0,0.0,1677898990.268174,0.0
105,105.0,37381.996200322654,32725.926664582097,-72653.74185487532,-64816.63910348882,6245.9714705910055,-999.5476602968765,-152406.55421096733,187500.0,-0.014,0.914,0.34600000000000003,192.0,0.0,0.0,0.0,0.0,0.0,0.0,0.0,0.0,0.0,1677898990.272174,0.0
106,106.0,35268.7728725401,32576.996991276385,-71951.29358187837,-64245.060294277704,6829.709628785805,-1185.6706363762185,-153325.23325982492,187500.0,-0.006,0.918,0.364,192.0,255.0,208.0,28.0,176.0,11.0,96.0,0.0,0.0,0.0,1677898990.276069,0.0
107,107.0,32701.5185596369,32625.58968372222,-71395.852732164,-63725.024607780535,7365.771516057434,-773.8173930427305,-157043.84828136544,187500.0,-0.006,0.918,0.364,192.0,0.0,0.0,0.0,0.0,0.0,0.0,0.0,0.0,0.0,1677898990.282072,0.0
108,108.0,34326.87036119346,32775.905165184166,-71932.47341304702,-64156.81560716816,6918.110778106544,-540.554587907146,-156588.74441251092,187500.0,-0.006,0.918,0.364,192.0,0.0,0.0,0.0,0.0,0.0,0.0,0.0,0.0,0.0,1677898990.285177,0.0
109,109.0,37303.02748716206,32783.34829608778,-72576.58363301559,-64747.795730566475,6288.640950756187,-885.6208188081764,-152564.84926519982,187500.0,-0.006,0.918,0.364,192.0,0.0,0.0,0.0,0.0,0.0,0.0,0.0,0.0,0.0,1677898990.288067,0.0
110,110.0,35947.01420629194,32624.427393010545,-72043.53923124544,-64332.36620812014,6717.123891964423,-1188.8892875777826,-152402.0168068429,187500.0,-0.006,0.918,0.364,192.0,0.0,0.0,0.0,0.0,0.0,0.0,0.0,0.0,0.0,1677898990.293071,0.0
111,111.0,32972.131129757305,32636.162058849583,-71364.4485312043,-63703.969264503634,7356.428486875116,-841.5878822312216,-156143.56471819457,187500.0,-0.006,0.918,0.364,192.0,0.0,0.0,0.0,0.0,0.0,0.0,0.0,0.0,0.0,1677898990.296103,0.0
112,112.0,33849.10182346128,32801.766133518955,-71729.89955304856,-63970.08913398852,7096.50005060435,-522.4943783872579,-156655.15144528766,187500.0,-0.006,0.918,0.364,192.0,0.0,0.0,0.0,0.0,0.0,0.0,0.0,0.0,0.0,1677898990.300072,0.0
113,113.0,37059.661693532675,32832.27626470045,-72504.27573970267,-64654.34308699884,6384.1499548137135,-752.8961602325631,-152732.01796198107,187500.0,-0.006,0.918,0.364,192.0,0.0,0.0,0.0,0.0,0.0,0.0,0.0,0.0,0.0,1677898990.304198,0.0
114,114.0,36545.30335012714,32690.722667064987,-72175.8839101653,-64409.47972649094,6633.662478168307,-1113.1839291076576,-151550.48239832907,187500.0,-0.006,0.918,0.364,192.0,0.0,0.0,0.0,0.0,0.0,0.0,0.0,0.0,0.0,1677898990.309181,0.0
115,115.0,33333.98352074427,32651.294189845827,-71427.56985754608,-63726.61158163686,7331.998030185465,-865.0795656537492,-155092.09395552802,187500.0,-0.006,0.918,0.364,192.0,0.0,0.0,0.0,0.0,0.0,0.0,0.0,0.0,0.0,1677898990.312087,0.0
116,116.0,33380.676314911405,32800.91676722965,-71620.3536534731,-63832.87177477739,7219.233479408441,-493.90649722892016,-156523.67848440152,187500.0,0.006,0.886,0.368,192.0,0.0,48.0,27.0,176.0,11.0,128.0,0.0,0.0,0.0,1677898990.315241,0.0
117,117.0,36585.1341587465,32871.99531459753,-72445.64711399641,-64542.71847518903,6463.811572052428,-645.9430630139188,-152997.82490704357,187500.0,0.006,0.886,0.368,192.0,0.0,0.0,0.0,0.0,0.0,0.0,0.0,0.0,0.0,1677898990.320088,0.0
118,118.0,36899.3102788103,32701.786780570364,-72391.086505781,-64546.69708570208,6458.044821982959,-1128.5619292929089,-150839.1604827834,187500.0,0.006,0.886,0.368,192.0,0.0,0.0,0.0,0.0,0.0,0.0,0.0,0.0,0.0,1677898990.324093,0.0
119,119.0,33609.066439755734,32623.019233109862,-71573.48204535032,-63814.14101292384,7199.072205909754,-999.1229771522258,-153933.2454124982,187500.0,0.006,0.886,0.368,192.0,0.0,0.0,0.0,0.0,0.0,0.0,0.0,0.0,0.0,1677898990.328169,0.0
120,120.0,32845.50849741799,32765.489252267987,-71565.74834176879,-63739.59794516539,7278.353843492729,-573.5457627231792,-156215.09030045156,187500.0,0.006,0.886,0.368,192.0,0.0,0.0,0.0,0.0,0.0,0.0,0.0,0.0,0.0,1677898990.332338,0.0
121,121.0,35901.43899934757,32851.945799821115,-72412.81240139157,-64457.58068055876,6529.123369350836,-641.3833071450362,-153283.70371862696,187500.0,0.006,0.886,0.368,192.0,0.0,0.0,0.0,0.0,0.0,0.0,0.0,0.0,0.0,1677898990.33612,0.0
122,122.0,37097.95023178461,32711.263920219415,-72584.92083369743,-64659.52869171247,6322.615602328254,-1105.2267080815684,-150345.52220648792,187500.0,0.006,0.886,0.368,192.0,0.0,0.0,0.0,0.0,0.0,0.0,0.0,0.0,0.0,1677898990.34115,0.0
123,123.0,34031.02267158302,32591.54797691679,-71787.03061187633,-63963.56242460757,7038.318459787186,-1086.7641671614847,-152838.8816522219,187500.0,0.006,0.886,0.368,192.0,0.0,0.0,0.0,0.0,0.0,0.0,0.0,0.0,0.0,1677898990.344083,0.0
124,124.0,32509.4723712769,32716.80715284433,-71572.3421063831,-63710.205401206666,7286.311064518817,-641.9868042453295,-155858.37881068932,187500.0,0.006,0.886,0.368,192.0,0.0,0.0,0.0,0.0,0.0,0.0,0.0,0.0,0.0,1677898990.348114,0.0
125,125.0,35147.067623980955,32818.35112790479,-72357.00009548666,-64369.15717949357,6626.196995520234,-614.650620776489,-153792.92116080775,187500.0,0.006,0.886,0.368,192.0,0.0,0.0,0.0,0.0,0.0,0.0,0.0,0.0,0.0,1677898990.352157,0.0
126,126.0,37116.50217968252,32721.679833135586,-72708.77184972427,-64731.97069549211,6307.01408469845,-1081.623265936764,-150335.41921799412,187500.0,-0.018000000000000002,0.886,0.382,192.0,255.0,112.0,27.0,176.0,11.0,240.0,0.0,0.0,0.0,1677898990.363228,0.0
127,127.0,34506.60073835859,32597.8958723421,-71938.26251486094,-64082.25018766525,6982.930837026935,-1167.6774820896962,-152091.93105601444,187500.0,-0.018000000000000002,0.886,0.382,192.0,0.0,0.0,0.0,0.0,0.0,0.0,0.0,0.0,0.0,1677898990.366145,0.0
128,128.0,32342.39308147348,32681.111416949207,-71551.62203927303,-63693.88862775429,7379.5625423863585,-740.2003693819487,-155658.3977530477,187500.0,-0.018000000000000002,0.886,0.382,192.0,0.0,0.0,0.0,0.0,0.0,0.0,0.0,0.0,0.0,1677898990.369147,0.0
129,129.0,34463.2830576042,32824.274340185446,-72195.32992784142,-64226.44129114644,6848.038059239157,-609.2862021072152,-154573.55583590936,187500.0,-0.018000000000000002,0.886,0.382,192.0,0.0,0.0,0.0,0.0,0.0,0.0,0.0,0.0,0.0,1677898990.372147,0.0
130,130.0,37066.076644191344,32797.25108113898,-72721.69115801944,-64735.12229146031,6346.263747961968,-998.0500934183709,-150870.14000059845,187500.0,-0.018000000000000002,0.886,0.382,192.0,0.0,0.0,0.0,0.0,0.0,0.0,0.0,0.0,0.0,1677898990.376251,0.0
131,131.0,35096.955012912156,32628.27189305686,-72102.97251975209,-64247.5636896567,6866.902931559436,-1212.492729722587,-151739.6675633988,187500.0,-0.018000000000000002,0.886,0.382,192.0,0.0,0.0,0.0,0.0,0.0,0.0,0.0,0.0,0.0,1677898990.379143,0.0
132,132.0,32415.639748053523,32664.23584988545,-71533.65123673096,-63725.87397406984,7403.434205464627,-829.5626437142663,-155659.42593329263,187500.0,-0.018000000000000002,0.886,0.382,192.0,0.0,0.0,0.0,0.0,0.0,0.0,0.0,0.0,0.0,1677898990.382221,0.0
133,133.0,33871.855899316775,32795.01590669345,-72018.41587047766,-64128.40653996546,6997.772395345259,-611.8343009751202,-155642.1927383176,187500.0,-0.018000000000000002,0.886,0.382,192.0,0.0,0.0,0.0,0.0,0.0,0.0,0.0,0.0,0.0,1677898990.386143,0.0
134,134.0,36916.65523250762,32803.48721784201,-72644.44352918191,-64721.577134320396,6390.9001816392165,-948.1386480496703,-151906.9033154134,187500.0,-0.018000000000000002,0.886,0.382,192.0,0.0,0.0,0.0,0.0,0.0,0.0,0.0,0.0,0.0,1677898990.389217,0.0
135,135.0,35763.93106745852,32673.422416856578,-72126.86653457482,-64335.540155832794,6783.8885526524255,-1226.7531426850728,-151799.99492168368,187500.0,-0.018000000000000002,0.886,0.382,192.0,0.0,0.0,0.0,0.0,0.0,0.0,0.0,0.0,0.0,1677898990.394277,0.0
136,136.0,32769.51256626994,32675.54583257983,-71442.76904377568,-63756.09353257341,7421.13678707323,-899.568307348288,-155714.12065197478,187500.0,-0.054,0.9440000000000001,0.382,192.0,254.0,80.0,29.0,128.0,11.0,240.0,0.0,0.0,0.0,1677898990.397168,0.0
137,137.0,33473.83838580112,32809.90216850068,-71776.41353326006,-64020.58172471306,7153.966385598945,-612.3260393531369,-156644.69082888257,187500.0,-0.054,0.9440000000000001,0.382,192.0,0.0,0.0,0.0,0.0,0.0,0.0,0.0,0.0,0.0,1677898990.401171,0.0
138,138.0,36671.031912688246,32853.845698099816,-72531.63427491597,-64685.21084609161,6426.215937878602,-847.2875770673248,-153134.81874881015,187500.0,-0.054,0.9440000000000001,0.382,192.0,0.0,0.0,0.0,0.0,0.0,0.0,0.0,0.0,0.0,1677898990.404158,0.0
139,139.0,36350.709062899245,32713.074411520294,-72274.87978635787,-64499.66901536811,6598.994922518125,-1235.2468055780896,-152040.94672691188,187500.0,-0.054,0.9440000000000001,0.382,192.0,0.0,0.0,0.0,0.0,0.0,0.0,0.0,0.0,0.0,1677898990.40817,0.0
140,140.0,33188.11603642893,32655.18339338105,-71583.67444082194,-63857.05636227803,7264.4510584415275,-1022.3464396412897,-155686.42684059465,187500.0,-0.054,0.9440000000000001,0.382,192.0,0.0,0.0,0.0,0.0,0.0,0.0,0.0,0.0,0.0,1677898990.41217,0.0
141,141.0,33098.12791325187,32775.94986867307,-71792.12680961213,-63971.4972938892,7161.253054291375,-681.2811709977593,-157482.2777488563,187500.0,-0.054,0.9440000000000001,0.382,192.0,0.0,0.0,0.0,0.0,0.0,0.0,0.0,0.0,0.0,1677898990.416171,0.0
142,142.0,36256.00472164211,32859.03130281345,-72616.50384861277,-64665.25073829303,6448.612385822819,-830.5684722147552,-154331.70996090292,187500.0,-0.054,0.9440000000000001,0.382,192.0,0.0,0.0,0.0,0.0,0.0,0.0,0.0,0.0,0.0,1677898990.421159,0.0
143,143.0,36776.576850006204,32693.628393844177,-72641.91778205846,-64733.15533794825,6367.922588339161,-1302.4137976662873,-152220.4759383769,187500.0,-0.054,0.9440000000000001,0.382,192.0,0.0,0.0,0.0,0.0,0.0,0.0,0.0,0.0,0.0,1677898990.424255,0.0
144,144.0,33646.88559137411,32573.376008674626,-71910.5687034808,-64082.16078068743,7004.567325659672,-1186.3858921987883,-155272.91956817146,187500.0,-0.054,0.9440000000000001,0.382,192.0,0.0,0.0,0.0,0.0,0.0,0.0,0.0,0.0,0.0,1677898990.429278,0.0
145,145.0,32785.94109844459,32678.339800636746,-71860.27727845637,-63991.792677854624,7093.795489525258,-798.8289950882191,-157755.7289905225,187500.0,-0.092,0.9,0.342,192.0,253.0,32.0,28.0,32.0,10.0,176.0,0.0,0.0,0.0,1677898990.433193,0.0
146,146.0,35704.0283923183,32790.098522913286,-72579.62347026152,-64619.988455771025,6457.866008027317,-852.9872719034281,-155177.61172981403,187500.0,-0.092,0.9,0.342,192.0,0.0,0.0,0.0,0.0,0.0,0.0,0.0,0.0,0.0,1677898990.436301,0.0
147,147.0,37062.790937756414,32675.098797690727,-72744.73580655287,-64832.59824902991,6220.356371445224,-1317.6129838958961,-152271.95200585749,187500.0,-0.092,0.9,0.342,192.0,0.0,0.0,0.0,0.0,0.0,0.0,0.0,0.0,0.0,1677898990.440182,0.0
148,148.0,34225.05816519954,32531.91352271003,-71972.79596004439,-64191.68432851844,6868.1769809933885,-1318.0600187850023,-154599.9979496,187500.0,-0.092,0.9,0.342,192.0,0.0,0.0,0.0,0.0,0.0,0.0,0.0,0.0,0.0,1677898990.444162,0.0
149,149.0,32661.017198683883,32605.473113712447,-71715.79560229726,-63938.88609872891,7108.212364698931,-924.7140198605085,-157680.87299834169,187500.0,-0.092,0.9,0.342,192.0,0.0,0.0,0.0,0.0,0.0,0.0,0.0,0.0,0.0,1677898990.44922,0.0
150,150.0,35133.52246684104,32695.975327011984,-72404.11757279845,-64542.539661233386,6471.098240744858,-925.8763105721845,-155839.022199991,187500.0,-0.092,0.9,0.342,192.0,0.0,0.0,0.0,0.0,0.0,0.0,0.0,0.0,0.0,1677898990.45219,0.0
151,151.0,37184.33972410437,32642.353492063703,-72716.50555330582,-64888.254092723626,6112.486852703912,-1336.1872835382562,-152384.62714965668,187500.0,-0.092,0.9,0.342,192.0,0.0,0.0,0.0,0.0,0.0,0.0,0.0,0.0,0.0,1677898990.455296,0.0
152,152.0,34810.65151818413,32512.020470144806,-71983.70361133857,-64305.119431629115,6715.223993685722,-1418.5981653449733,-153895.98505449118,187500.0,-0.092,0.9,0.342,192.0,0.0,0.0,0.0,0.0,0.0,0.0,0.0,0.0,0.0,1677898990.461325,0.0
153,153.0,32612.82683763824,32551.15837468605,-71568.63171680352,-63935.712151016254,7108.145309465565,-1041.1889602171136,-157412.67441662247,187500.0,-0.092,0.9,0.342,192.0,0.0,0.0,0.0,0.0,0.0,0.0,0.0,0.0,0.0,1677898990.464215,0.0
154,154.0,34521.21877923236,32675.925812235575,-72130.77808985449,-64428.12108136667,6637.484626470164,-940.4049444681341,-156511.47443192895,187500.0,-0.092,0.9,0.342,192.0,0.0,0.0,0.0,0.0,0.0,0.0,0.0,0.0,0.0,1677898990.468322,0.0
155,155.0,37130.80729613391,32662.715931262486,-72619.36487190305,-64919.144203560856,6154.530484024344,-1326.5983851669296,-152791.98769235465,187500.0,-0.054,0.936,0.312,192.0,254.0,80.0,29.0,64.0,9.0,192.0,0.0,0.0,0.0,1677898990.472215,0.0
156,156.0,35392.62388856696,32498.743533938356,-72030.23994329452,-64466.14139868515,6604.02406502057,-1508.2733640996653,-153327.64724822607,187500.0,-0.054,0.936,0.312,192.0,0.0,0.0,0.0,0.0,0.0,0.0,0.0,0.0,0.0,1677898990.476185,0.0
157,157.0,32729.592350672767,32498.229443815882,-71463.69027658585,-63955.6946105593,7116.996600269867,-1144.588130067364,-157008.62193210388,187500.0,-0.054,0.936,0.312,192.0,0.0,0.0,0.0,0.0,0.0,0.0,0.0,0.0,0.0,1677898990.480323,0.0
158,158.0,33963.45334809463,32633.23398032594,-71897.73880216347,-64303.666568239525,6759.189875029311,-957.0122905984272,-157021.2059642322,187500.0,-0.054,0.936,0.312,192.0,0.0,0.0,0.0,0.0,0.0,0.0,0.0,0.0,0.0,1677898990.483218,0.0
159,159.0,36923.09253491074,32672.975381967473,-72546.72170242331,-64875.088915239445,6142.617004229665,-1270.7190240286618,-153237.88264249358,187500.0,-0.054,0.936,0.312,192.0,0.0,0.0,0.0,0.0,0.0,0.0,0.0,0.0,0.0,1677898990.487221,0.0
160,160.0,35952.848011594775,32511.32756606669,-72193.78765747401,-64585.63382454322,6418.705751741619,-1561.4034606699302,-152686.7333277146,187500.0,-0.054,0.936,0.312,192.0,0.0,0.0,0.0,0.0,0.0,0.0,0.0,0.0,0.0,1677898990.492298,0.0
161,161.0,32978.568432160435,32467.674609145477,-71599.54417938521,-64005.427241972364,6979.779241058736,-1270.9201897287596,-156191.5762652846,187500.0,-0.054,0.936,0.312,192.0,0.0,0.0,0.0,0.0,0.0,0.0,0.0,0.0,0.0,1677898990.496344,0.0
162,162.0,33561.948962443945,32619.64411969711,-71886.5182264469,-64177.043935900205,6795.645570235917,-966.4670785030221,-157003.0563477345,187500.0,-0.054,0.936,0.312,192.0,0.0,0.0,0.0,0.0,0.0,0.0,0.0,0.0,0.0,1677898990.500239,0.0
163,163.0,36830.28809193231,32676.775178524877,-72639.16851749046,-64816.68380697773,6122.947469108995,-1239.3371748134107,-153274.65126212256,187500.0,-0.054,0.936,0.312,192.0,0.0,0.0,0.0,0.0,0.0,0.0,0.0,0.0,0.0,1677898990.504345,0.0
164,164.0,36833.57379836724,32539.781336758297,-72441.57909650553,-64680.49462801155,6261.751802176453,-1577.6755306333937,-151593.777727339,187500.0,-0.054,0.936,0.312,192.0,0.0,0.0,0.0,0.0,0.0,0.0,0.0,0.0,0.0,1677898990.508243,0.0
165,165.0,33808.82397995281,32494.76492342531,-71686.55952054972,-64002.32034949307,6945.715182508849,-1318.775274607572,-154681.78298256194,187500.0,-0.04,0.936,0.308,192.0,254.0,192.0,29.0,64.0,9.0,160.0,0.0,0.0,0.0,1677898990.511314,0.0
166,166.0,33551.51069778332,32619.532360974834,-71767.51753896684,-64038.95485865532,6928.012600900245,-963.404889512645,-156225.86384127903,187500.0,-0.04,0.936,0.308,192.0,0.0,0.0,0.0,0.0,0.0,0.0,0.0,0.0,0.0,1677898990.516274,0.0
167,167.0,36588.330458203614,32729.033557061382,-72470.18932940833,-64667.08358133836,6317.675866803631,-1107.975972649571,-152867.29071942458,187500.0,-0.04,0.936,0.308,192.0,0.0,0.0,0.0,0.0,0.0,0.0,0.0,0.0,0.0,1677898990.520237,0.0
168,168.0,37281.7486264406,32644.812183953785,-72416.1428113154,-64699.85123870984,6328.427055886634,-1503.0430558971234,-150295.56605763032,187500.0,-0.04,0.936,0.308,192.0,0.0,0.0,0.0,0.0,0.0,0.0,0.0,0.0,0.0,1677898990.524315,0.0
169,169.0,34243.40894739735,32567.363389416147,-71626.94741808742,-64051.02480066119,7073.924788704489,-1354.873341902893,-152888.65898712387,187500.0,-0.04,0.936,0.308,192.0,0.0,0.0,0.0,0.0,0.0,0.0,0.0,0.0,0.0,1677898990.528346,0.0
170,170.0,33188.47366434022,32699.551606124835,-71517.62503595652,-63929.87834571342,7256.695003115536,-928.4691129290001,-155248.8467393931,187500.0,-0.04,0.936,0.308,192.0,0.0,0.0,0.0,0.0,0.0,0.0,0.0,0.0,0.0,1677898990.534281,0.0
171,171.0,35916.30290941035,32848.7047968751,-72224.96834098916,-64551.18978633759,6659.232873825178,-973.2173053285248,-152652.37869648682,187500.0,-0.04,0.936,0.308,192.0,0.0,0.0,0.0,0.0,0.0,0.0,0.0,0.0,0.0,1677898990.537267,0.0
172,172.0,37321.400621104316,32818.06055522687,-72376.33435444049,-64746.611088110345,6487.61617989733,-1355.3650802809098,-149509.1869842037,187500.0,-0.04,0.936,0.308,192.0,0.0,0.0,0.0,0.0,0.0,0.0,0.0,0.0,0.0,1677898990.540299,0.0
173,173.0,34470.25680187426,32728.787687872376,-71610.67534812396,-64107.23943796629,7155.419248988539,-1273.5353438300306,-151507.0082553635,187500.0,-0.04,0.936,0.308,192.0,0.0,0.0,0.0,0.0,0.0,0.0,0.0,0.0,0.0,1677898990.544261,0.0
174,174.0,32627.713099445475,32819.96045350557,-71327.70226331976,-63821.20416417172,7431.7985691784115,-866.2642081098805,-154481.15372433112,187500.0,-0.04,0.936,0.308,192.0,0.0,0.0,0.0,0.0,0.0,0.0,0.0,0.0,0.0,1677898990.54933,0.0
175,175.0,34885.66397257614,32972.42170243522,-71943.73869225249,-64326.867678984134,6893.769728394715,-827.3945245021015,-152699.27265635403,187500.0,0.006,0.932,0.32,192.0,0.0,48.0,29.0,32.0,10.0,0.0,0.0,0.0,0.0,1677898990.552271,0.0
176,176.0,37130.44966822263,32952.46159463663,-72283.4628562287,-64662.07679058037,6523.468378003643,-1204.5802121854083,-149075.89841793757,187500.0,0.006,0.932,0.32,192.0,0.0,0.0,0.0,0.0,0.0,0.0,0.0,0.0,0.0,1677898990.556268,0.0
177,177.0,35078.1795475697,32783.28124085441,-71649.43327300946,-64131.98281907831,7056.088096629155,-1261.9571402021816,-150162.43906765452,187500.0,0.006,0.932,0.32,192.0,0.0,0.0,0.0,0.0,0.0,0.0,0.0,0.0,0.0,1677898990.567295,0.0
178,178.0,32936.94948398465,32843.20626773909,-71206.04171824953,-63701.89055226929,7506.811023570422,-856.1388678716264,-153507.42232888011,187500.0,0.006,0.932,0.32,192.0,0.0,0.0,0.0,0.0,0.0,0.0,0.0,0.0,0.0,1677898990.570292,0.0
179,179.0,34833.472649273,32992.82884512292,-71758.688599907,-64144.00805759527,7076.316425361208,-748.0681834302168,-152673.29992929698,187500.0,0.006,0.932,0.32,192.0,0.0,0.0,0.0,0.0,0.0,0.0,0.0,0.0,0.0,1677898990.574291,0.0
180,180.0,37642.37167148253,32984.022257807526,-72306.19458033974,-64654.90188061022,6562.338061611422,-1075.722405400563,-148877.97372078584,187500.0,0.006,0.932,0.32,192.0,0.0,0.0,0.0,0.0,0.0,0.0,0.0,0.0,0.0,1677898990.577386,0.0
181,181.0,36189.977668521125,32806.57175857684,-71791.43390553402,-64258.069009550694,6963.3283571396305,-1261.6889192687177,-149105.06744445176,187500.0,0.006,0.932,0.32,192.0,0.0,0.0,0.0,0.0,0.0,0.0,0.0,0.0,0.0,1677898990.580291,0.0
182,182.0,33572.74485501586,32797.16167416116,-71233.31084648501,-63748.00220108059,7484.660444815212,-928.8714443291956,-152647.01427781754,187500.0,0.006,0.932,0.32,192.0,0.0,0.0,0.0,0.0,0.0,0.0,0.0,0.0,0.0,1677898990.583321,0.0
183,183.0,34707.833493689715,32929.349890869846,-71630.32253150018,-64070.73903927077,7180.699071967491,-749.1634189085269,-152774.17335202376,187500.0,0.006,0.932,0.32,192.0,0.0,0.0,0.0,0.0,0.0,0.0,0.0,0.0,0.0,1677898990.587291,0.0
184,184.0,37665.32691303813,32965.04562676497,-72320.79026946906,-64672.626813963274,6567.0542796914915,-1084.1043095713032,-149001.78003332377,187500.0,0.006,0.932,0.32,192.0,0.0,0.0,0.0,0.0,0.0,0.0,0.0,0.0,0.0,1677898990.590401,0.0
185,185.0,36772.687646470986,32815.40069763669,-72043.29336205643,-64409.61383695768,6838.382105634464,-1366.3397868084655,-148221.1453582222,187500.0,0.064,0.918,0.312,192.0,2.0,0.0,28.0,176.0,9.0,192.0,0.0,0.0,0.0,1677898990.59329,0.0
186,186.0,33667.20332708399,32764.237554578493,-71396.00919437519,-63817.42671935877,7433.609060479291,-1080.1927542916244,-151610.5862391694,187500.0,0.064,0.918,0.312,192.0,0.0,0.0,0.0,0.0,0.0,0.0,0.0,0.0,0.0,1677898990.597418,0.0
187,187.0,33897.06866706236,32855.29856148941,-71669.50513953032,-64023.42039625888,7205.151880401598,-875.3166646142798,-152535.36731426328,187500.0,0.064,0.918,0.312,192.0,0.0,0.0,0.0,0.0,0.0,0.0,0.0,0.0,0.0,1677898990.600346,0.0
188,188.0,36885.854528648204,32900.29262307795,-72411.91833161334,-64678.6170814773,6495.2828282455,-1128.6960397596408,-148882.86875282155,187500.0,0.064,0.918,0.312,192.0,0.0,0.0,0.0,0.0,0.0,0.0,0.0,0.0,0.0,1677898990.603344,0.0
189,189.0,36840.45813565947,32727.692452394065,-72278.88074861535,-64623.38592092824,6542.735581724118,-1470.2753985256434,-147005.38927380912,187500.0,0.064,0.918,0.312,192.0,0.0,0.0,0.0,0.0,0.0,0.0,0.0,0.0,0.0,1677898990.607311,0.0
190,190.0,33712.64442356163,32632.518724503367,-71582.08746696562,-64005.784869883646,7174.105307353176,-1254.8269337209385,-149947.9070243725,187500.0,0.064,0.918,0.312,192.0,0.0,0.0,0.0,0.0,0.0,0.0,0.0,0.0,0.0,1677898990.611316,0.0
191,191.0,33253.71840640526,32745.506792724944,-71669.39338080805,-64026.616695715995,7160.694260679992,-949.5468079503546,-151640.76109418407,187500.0,0.064,0.918,0.312,192.0,0.0,0.0,0.0,0.0,0.0,0.0,0.0,0.0,0.0,1677898990.616344,0.0
192,192.0,36197.08552325792,32841.84281132732,-72429.88913415541,-64678.48297101057,6485.358653707344,-1102.79036793594,-148446.38388709832,187500.0,0.064,0.918,0.312,192.0,0.0,0.0,0.0,0.0,0.0,0.0,0.0,0.0,0.0,1677898990.620417,0.0
193,193.0,37040.930931679126,32717.678870878088,-72494.23980644225,-64795.58376021192,6382.898257124217,-1499.1538523619,-145720.90157519598,187500.0,0.064,0.918,0.312,192.0,0.0,0.0,0.0,0.0,0.0,0.0,0.0,0.0,0.0,1677898990.624313,0.0
194,194.0,34120.51905638207,32591.995011805895,-71769.26097503435,-64178.6979649899,7016.525508943261,-1383.125946894401,-148080.3964233871,187500.0,0.064,0.918,0.312,192.0,0.0,0.0,0.0,0.0,0.0,0.0,0.0,0.0,0.0,1677898990.628448,0.0
195,195.0,33034.67131074325,32658.782024238353,-71672.43321805396,-64061.150140899445,7147.8196558737345,-1036.8080183038735,-150420.22173645758,187500.0,0.094,0.918,0.32,192.0,2.0,240.0,28.0,176.0,10.0,0.0,0.0,0.0,0.0,1677898990.631338,0.0
196,196.0,35789.121483459654,32751.228839305502,-72384.47038942223,-64680.516979756,6528.832796672917,-1105.9419639041382,-147860.61172015808,187500.0,0.094,0.918,0.32,192.0,0.0,0.0,0.0,0.0,0.0,0.0,0.0,0.0,0.0,1677898990.635416,0.0
197,197.0,37483.38371317193,32649.103718889204,-72631.77009007575,-64964.56294829404,6237.94719433155,-1527.4511608423188,-144449.31083313358,187500.0,0.094,0.918,0.32,192.0,0.0,0.0,0.0,0.0,0.0,0.0,0.0,0.0,0.0,1677898990.639418,0.0
198,198.0,34922.23142650502,32491.702734434934,-71933.14396538067,-64397.58859844072,6828.569689818584,-1514.1965763803216,-146028.48393064548,187500.0,0.094,0.918,0.32,192.0,0.0,0.0,0.0,0.0,0.0,0.0,0.0,0.0,0.0,1677898990.645417,0.0
199,199.0,33124.7711926426,32546.30804613925,-71636.71513041439,-64120.18109800591,7130.944088809978,-1137.8602549863167,-148871.13408698252,187500.0,0.094,0.918,0.32,192.0,0.0,0.0,0.0,0.0,0.0,0.0,0.0,0.0,0.0,1677898990.648341,0.0
200,200.0,35328.60849244696,32698.32226017979,-72238.58055336244,-64637.10989202379,6618.373884960876,-1092.7767864199623,-147130.3802288032,187500.0,0.094,0.918,0.32,192.0,0.0,0.0,0.0,0.0,0.0,0.0,0.0,0.0,0.0,1677898990.652444,0.0
201,201.0,37543.15227784542,32681.737265793952,-72638.85559306807,-65037.854318362995,6202.743196814442,-1468.4202037358527,-143332.05888653506,187500.0,0.094,0.918,0.32,192.0,0.0,0.0,0.0,0.0,0.0,0.0,0.0,0.0,0.0,1677898990.656344,0.0
202,202.0,35362.00199866319,32541.81534550373,-71997.69580336759,-64503.55821890333,6753.4231249598415,-1545.377259895475,-144106.18920400014,187500.0,0.094,0.918,0.32,192.0,0.0,0.0,0.0,0.0,0.0,0.0,0.0,0.0,0.0,1677898990.65938,0.0
203,203.0,32906.08172489187,32591.659735639067,-71519.86021040204,-64042.93346916837,7236.846654039223,-1149.460810358621,-147323.1640247302,187500.0,0.094,0.918,0.32,192.0,0.0,0.0,0.0,0.0,0.0,0.0,0.0,0.0,0.0,1677898990.66337,0.0
204,204.0,34449.71554871983,32739.67298742211,-72038.24186780953,-64459.502930581926,6800.317084827076,-1033.6117188467645,-146509.0240846901,187500.0,0.094,0.918,0.32,192.0,0.0,0.0,0.0,0.0,0.0,0.0,0.0,0.0,0.0,1677898990.667368,0.0
205,205.0,37099.26898470747,32772.0830168823,-72579.60111851706,-64954.929346433804,6271.273645314413,-1382.4777463051971,-142539.06369674965,187500.0,0.14400000000000002,0.914,0.318,192.0,4.0,128.0,28.0,144.0,9.0,240.0,0.0,0.0,0.0,1677898990.671447,0.0
206,206.0,35593.56607122017,32631.445840769513,-72077.9162142177,-64552.73205670501,6682.076356658502,-1558.408326912919,-142353.14188637043,187500.0,0.14400000000000002,0.914,0.318,192.0,0.0,0.0,0.0,0.0,0.0,0.0,0.0,0.0,0.0,1677898990.676477,0.0
207,207.0,32759.38722603169,32608.758820147377,-71509.86898063052,-64020.69348343534,7206.291819368818,-1222.103979838369,-145617.12242569,187500.0,0.14400000000000002,0.914,0.318,192.0,0.0,0.0,0.0,0.0,0.0,0.0,0.0,0.0,0.0,1677898990.680365,0.0
208,208.0,33730.32465342577,32740.231781033493,-71875.92349957509,-64290.74725994436,6930.5159962792395,-1002.8110149873513,-145681.24958053228,187500.0,0.14400000000000002,0.914,0.318,192.0,0.0,0.0,0.0,0.0,0.0,0.0,0.0,0.0,0.0,1677898990.684495,0.0
209,209.0,36805.321193375734,32793.093656670295,-72533.98120808377,-64865.36590640139,6329.455236131577,-1281.5596200894856,-141730.31052712328,187500.0,0.14400000000000002,0.914,0.318,192.0,0.0,0.0,0.0,0.0,0.0,0.0,0.0,0.0,0.0,1677898990.68739,0.0
210,210.0,36208.46256118567,32648.947256678017,-72217.43580310771,-64621.70954009409,6564.8861604793265,-1550.3616989090085,-140540.25894883383,187500.0,0.14400000000000002,0.914,0.318,192.0,0.0,0.0,0.0,0.0,0.0,0.0,0.0,0.0,0.0,1677898990.69139,0.0
211,211.0,33223.43179266832,32604.959023589974,-71542.77074846873,-64002.18623902634,7197.440528564517,-1266.5392478155195,-143709.6245538741,187500.0,0.14400000000000002,0.914,0.318,192.0,0.0,0.0,0.0,0.0,0.0,0.0,0.0,0.0,0.0,1677898990.695495,0.0
212,212.0,33474.95597302389,32717.991795300462,-71771.5855564577,-64149.730104175826,7057.004518151823,-995.7031602505638,-144706.4005978585,187500.0,0.14400000000000002,0.914,0.318,192.0,0.0,0.0,0.0,0.0,0.0,0.0,0.0,0.0,0.0,1677898990.699389,0.0
213,213.0,36622.75214466478,32785.67287751113,-72502.80052456862,-64784.273777517534,6401.629018977764,-1229.323593297433,-141101.48890036214,187500.0,0.14400000000000002,0.914,0.318,192.0,0.0,0.0,0.0,0.0,0.0,0.0,0.0,0.0,0.0,1677898990.704387,0.0
214,214.0,36873.851641875706,32662.40300684011,-72375.19441547328,-64717.53146857399,6459.430630139188,-1580.0448155456563,-139052.92916928878,187500.0,0.122,0.934,0.332,192.0,3.0,208.0,29.0,48.0,10.0,96.0,0.0,0.0,0.0,1677898990.708495,0.0
215,215.0,33819.50811380245,32572.370180174137,-71665.48182552836,-64079.29975739715,7120.572879382716,-1378.3650253254207,-141899.0885495053,187500.0,0.122,0.934,0.332,192.0,0.0,0.0,0.0,0.0,0.0,0.0,0.0,0.0,0.0,1677898990.711414,0.0
216,216.0,33230.74081310521,32697.33878342376,-71686.85009322764,-64044.43103604687,7177.391013788107,-1046.0839922528257,-143748.69540318198,187500.0,0.122,0.934,0.332,192.0,0.0,0.0,0.0,0.0,0.0,0.0,0.0,0.0,0.0,1677898990.715376,0.0
217,217.0,36118.876769408795,32808.98574697802,-72425.53054398664,-64676.98540413206,6525.412979771255,-1170.4267466576991,-140712.88147126217,187500.0,0.122,0.934,0.332,192.0,0.0,0.0,0.0,0.0,0.0,0.0,0.0,0.0,0.0,1677898990.719468,0.0
218,218.0,37071.48576634953,32702.367925926203,-72514.80341134113,-64804.144478338305,6389.402614760711,-1559.0788792465783,-137922.84732137292,187500.0,0.122,0.934,0.332,192.0,0.0,0.0,0.0,0.0,0.0,0.0,0.0,0.0,0.0,1677898990.723382,0.0
219,219.0,34110.84075103292,32585.445950680492,-71781.91206239606,-64169.779618952234,7024.125102058066,-1456.0820407965232,-140252.97197734978,187500.0,0.122,0.934,0.332,192.0,0.0,0.0,0.0,0.0,0.0,0.0,0.0,0.0,0.0,1677898990.727517,0.0
220,220.0,32761.06360686584,32675.478777346467,-71634.39054899104,-63995.86069534549,7204.3472176012065,-1094.9002021432166,-142811.0620750263,187500.0,0.122,0.934,0.332,192.0,0.0,0.0,0.0,0.0,0.0,0.0,0.0,0.0,0.0,1677898990.732458,0.0
221,221.0,35293.20332922976,32785.270546110936,-72357.67064782031,-64602.040004973416,6586.813221789983,-1142.3753073662886,-140484.53604990675,187500.0,0.122,0.934,0.332,192.0,0.0,0.0,0.0,0.0,0.0,0.0,0.0,0.0,0.0,1677898990.736416,0.0
222,222.0,37000.25075677047,32724.630263403687,-72622.89644752699,-64876.139447228845,6298.542773549888,-1554.7873443111594,-137078.08549142902,187500.0,0.122,0.934,0.332,192.0,0.0,0.0,0.0,0.0,0.0,0.0,0.0,0.0,0.0,1677898990.739452,0.0
223,223.0,34449.82730744211,32582.562575645756,-71935.22267761502,-64294.48000126839,6884.136126534478,-1555.1673239668994,-138644.83101902378,187500.0,0.122,0.934,0.332,192.0,0.0,0.0,0.0,0.0,0.0,0.0,0.0,0.0,0.0,1677898990.743541,0.0
224,224.0,32511.126400366596,32618.303015029793,-71653.30012480023,-63991.81502959908,7188.343368571207,-1188.263438733034,-141689.63035221462,187500.0,0.082,0.928,0.342,192.0,2.0,144.0,29.0,0.0,10.0,176.0,0.0,0.0,0.0,1677898990.747434,0.0
225,225.0,34647.68494936049,32753.352255028756,-72274.61156542439,-64491.8235530643,6673.649748998851,-1108.8029871944175,-140189.26950565213,187500.0,0.082,0.928,0.342,192.0,0.0,0.0,0.0,0.0,0.0,0.0,0.0,0.0,0.0,1677898990.751445,0.0
226,226.0,37042.67436774664,32737.460164721033,-72724.12749816508,-64910.38231973438,6231.755761117431,-1487.8885731564253,-136376.75480565487,187500.0,0.082,0.928,0.342,192.0,0.0,0.0,0.0,0.0,0.0,0.0,0.0,0.0,0.0,1677898990.755544,0.0
227,227.0,35097.06677163443,32571.319648184737,-72152.36987499832,-64435.09482563673,6693.341635863976,-1625.4859120232954,-136994.46761542174,187500.0,0.082,0.928,0.342,192.0,0.0,0.0,0.0,0.0,0.0,0.0,0.0,0.0,0.0,1677898990.759438,0.0
228,228.0,32698.43401890207,32577.421674421035,-71700.39525036755,-63993.960797066786,7151.507693708861,-1265.1087361703796,-140261.53269547614,187500.0,0.082,0.928,0.342,192.0,0.0,0.0,0.0,0.0,0.0,0.0,0.0,0.0,0.0,1677898990.76444,0.0
229,229.0,34262.787909840095,32701.09387649225,-72225.90711425628,-64405.9034473781,6729.394999670387,-1132.8087607394173,-139596.05420780828,187500.0,0.082,0.928,0.342,192.0,0.0,0.0,0.0,0.0,0.0,0.0,0.0,0.0,0.0,1677898990.768476,0.0
230,230.0,37119.87729309527,32701.406800914625,-72844.40223507908,-64962.79716048207,6155.6927747360205,-1461.513514699163,-135548.39915614118,187500.0,0.082,0.928,0.342,192.0,0.0,0.0,0.0,0.0,0.0,0.0,0.0,0.0,0.0,1677898990.771439,0.0
231,231.0,35876.42739730208,32538.753156513354,-72408.43145947832,-64617.79798481441,6527.826968172428,-1683.9357237739234,-135144.05609894468,187500.0,0.082,0.928,0.342,192.0,0.0,0.0,0.0,0.0,0.0,0.0,0.0,0.0,0.0,1677898990.775491,0.0
232,232.0,33049.378758594845,32520.134153382085,-71825.36385361718,-64079.322109141605,7088.7663470228135,-1369.6701967323063,-138434.0764205547,187500.0,0.082,0.928,0.342,192.0,0.0,0.0,0.0,0.0,0.0,0.0,0.0,0.0,0.0,1677898990.779462,0.0
233,233.0,33831.667462786136,32661.911268462096,-72177.56029099945,-64341.21749892444,6816.387989090442,-1134.3510311068335,-138669.976731536,187500.0,0.082,0.928,0.342,192.0,0.0,0.0,0.0,0.0,0.0,0.0,0.0,0.0,0.0,1677898990.783465,0.0
234,234.0,36834.6466821011,32713.588501642767,-72870.46436911396,-64964.85352097196,6182.268998893381,-1408.5622320845405,-134694.31664875944,187500.0,0.046,0.91,0.35000000000000003,192.0,1.0,112.0,28.0,112.0,10.0,240.0,0.0,0.0,0.0,1677898990.788571,0.0
235,235.0,36310.56532985751,32578.025171521327,-72569.1852056009,-64763.039620284995,6383.12177456877,-1728.7286196623588,-133306.89916692962,187500.0,0.046,0.91,0.35000000000000003,192.0,0.0,0.0,0.0,0.0,0.0,0.0,0.0,0.0,0.0,1677898990.791451,0.0
236,236.0,33226.4939816587,32537.076775679205,-71850.24134519593,-64126.238420753296,7032.171730061977,-1461.8264391215373,-136455.32118741528,187500.0,0.046,0.91,0.35000000000000003,192.0,0.0,0.0,0.0,0.0,0.0,0.0,0.0,0.0,0.0,1677898990.795463,0.0
237,237.0,33229.2432462267,32673.3106581343,-72007.57527441684,-64224.07200623417,6946.899824964979,-1143.0905631888586,-137613.11919845574,187500.0,0.046,0.91,0.35000000000000003,192.0,0.0,0.0,0.0,0.0,0.0,0.0,0.0,0.0,0.0,1677898990.799498,0.0
238,238.0,36236.51400047708,32751.474708494512,-72742.90296350753,-64882.77791533207,6288.350378078268,-1337.4613329722088,-134043.61266417656,187500.0,0.046,0.91,0.35000000000000003,192.0,0.0,0.0,0.0,0.0,0.0,0.0,0.0,0.0,0.0,1677898990.804561,0.0
239,239.0,36550.69012054087,32628.964797134973,-72640.44256692441,-64855.665249307785,6312.982000468016,-1699.693703614915,-131815.54607338263,187500.0,0.046,0.91,0.35000000000000003,192.0,0.0,0.0,0.0,0.0,0.0,0.0,0.0,0.0,0.0,1677898990.808518,0.0
240,240.0,33477.03468525824,32541.211848403436,-71887.7699241364,-64195.7523460093,6975.800630545692,-1531.4074196109082,-134607.2789558505,187500.0,0.046,0.91,0.35000000000000003,192.0,0.0,0.0,0.0,0.0,0.0,0.0,0.0,0.0,0.0,1677898990.811591,0.0
241,241.0,32777.02275240693,32679.90442274862,-71836.11504270018,-64097.53878087268,7055.574006506683,-1156.300444161945,-136627.11669529876,187500.0,0.046,0.91,0.35000000000000003,192.0,0.0,0.0,0.0,0.0,0.0,0.0,0.0,0.0,0.0,1677898990.815581,0.0
242,242.0,35672.512432636315,32782.92361294313,-72578.75175222776,-64724.88519249979,6390.78842291694,-1269.8920094838154,-133670.78556666203,187500.0,0.046,0.91,0.35000000000000003,192.0,0.0,0.0,0.0,0.0,0.0,0.0,0.0,0.0,0.0,1677898990.819555,0.0
243,243.0,36879.59604020072,32695.52829212288,-72692.81270418319,-64862.39312438884,6233.320383229302,-1665.3614241315634,-130702.87623439745,187500.0,0.046,0.91,0.35000000000000003,192.0,0.0,0.0,0.0,0.0,0.0,0.0,0.0,0.0,0.0,1677898990.823543,0.0
244,244.0,34108.89614926531,32588.329325715225,-71952.21000340105,-64194.36653785307,6894.864963873025,-1554.4297163998745,-132909.2839848142,187500.0,-0.008,0.914,0.35000000000000003,192.0,255.0,192.0,28.0,144.0,10.0,240.0,0.0,0.0,0.0,1677898990.827494,0.0
245,245.0,32789.76324674645,32668.70619877651,-71805.76137372988,-63986.80823884109,7094.801318025747,-1166.2246187001012,-135566.6381796167,187500.0,-0.008,0.914,0.35000000000000003,192.0,0.0,0.0,0.0,0.0,0.0,0.0,0.0,0.0,0.0,1677898990.832511,0.0
246,246.0,35412.941624276835,32797.429895094625,-72523.5205916787,-64564.51142603296,6505.631685928308,-1156.8368860288724,-133330.27909162987,187500.0,-0.008,0.914,0.35000000000000003,192.0,0.0,0.0,0.0,0.0,0.0,0.0,0.0,0.0,0.0,1677898990.835636,0.0
247,247.0,37389.774607393105,32747.406691003645,-72858.50618583038,-64875.91592978429,6153.12232412366,-1538.671736558883,-129753.50824040273,187500.0,-0.008,0.914,0.35000000000000003,192.0,0.0,0.0,0.0,0.0,0.0,0.0,0.0,0.0,0.0,1677898990.840548,0.0
248,248.0,34992.79588375043,32607.998860835894,-72191.91011093976,-64290.7249081999,6726.958659524758,-1580.983588812779,-131122.97727143494,187500.0,-0.008,0.914,0.35000000000000003,192.0,0.0,0.0,0.0,0.0,0.0,0.0,0.0,0.0,0.0,1677898990.843619,0.0
249,249.0,32984.87162409683,32680.396161126635,-71838.86430726819,-63918.12132812993,7111.721588578414,-1156.7027755621405,-134249.181657932,187500.0,-0.008,0.914,0.35000000000000003,192.0,0.0,0.0,0.0,0.0,0.0,0.0,0.0,0.0,0.0,1677898990.847571,0.0
250,250.0,35004.9105292452,32804.38128762022,-72481.2087394248,-64442.292087351336,6581.337044398433,-1088.5746584623646,-132911.54151100415,187500.0,-0.008,0.914,0.35000000000000003,192.0,0.0,0.0,0.0,0.0,0.0,0.0,0.0,0.0,0.0,1677898990.851542,0.0
251,251.0,37456.807489014565,32787.66218276766,-72980.2784896229,-64922.69813092925,6118.6559341735765,-1483.7758521766486,-129061.81115648881,187500.0,-0.008,0.914,0.35000000000000003,192.0,0.0,0.0,0.0,0.0,0.0,0.0,0.0,0.0,0.0,1677898990.855621,0.0
252,252.0,35551.65655036647,32625.41086976658,-72412.52182871364,-64492.91878854261,6602.235925464145,-1656.9571682163678,-129628.67374761985,187500.0,-0.008,0.914,0.35000000000000003,192.0,0.0,0.0,0.0,0.0,0.0,0.0,0.0,0.0,0.0,1677898990.861624,0.0
253,253.0,32958.89889703976,32636.586741994233,-71897.55998820782,-64040.363018556,7112.570954867716,-1310.8180535814827,-133149.25231328636,187500.0,-0.008,0.914,0.35000000000000003,192.0,0.0,0.0,0.0,0.0,0.0,0.0,0.0,0.0,0.0,1677898990.864548,0.0
254,254.0,34287.821863630044,32772.4853482825,-72350.89806925035,-64434.245459347425,6762.252064019688,-1097.8282806668617,-132891.2684787832,187500.0,-0.02,0.892,0.35000000000000003,192.0,255.0,96.0,27.0,224.0,10.0,240.0,0.0,0.0,0.0,1677898990.868574,0.0
255,255.0,37069.161184926175,32775.21226110605,-72973.7741319864,-65051.93591736984,6175.7646412568865,-1427.09182823799,-129043.14744986863,187500.0,-0.02,0.892,0.35000000000000003,192.0,0.0,0.0,0.0,0.0,0.0,0.0,0.0,0.0,0.0,1677898990.871592,0.0
256,0.0,35756.13030864362,32644.588666509233,-72493.70336457531,-64725.01930296652,6555.811352230472,-1690.7977093217028,-128739.05196655417,187500.0,-0.02,0.892,0.35000000000000003,192.0,0.0,0.0,0.0,0.0,0.0,0.0,0.0,0.0,0.0,1677898990.875567,0.0
257,1.0,32672.84127150074,32648.120242133173,-71819.46299308098,-64147.15965356346,7169.098516595187,-1366.5856559974739,-132414.03638291793,187500.0,-0.02,0.892,0.35000000000000003,192.0,0.0,0.0,0.0,0.0,0.0,0.0,0.0,0.0,0.0,1677898990.87954,0.0
258,2.0,33311.050630933125,32769.19964184757,-72115.71301409161,-64388.826714614246,6943.010621429757,-1113.720370974585,-133208.01504945935,187500.0,-0.02,0.892,0.35000000000000003,192.0,0.0,0.0,0.0,0.0,0.0,0.0,0.0,0.0,0.0,1677898990.883641,0.0
259,3.0,36402.56511003555,32825.88366578623,-72802.5821212032,-65018.52005940915,6306.991732953994,-1344.6809464312728,-129606.27729967562,187500.0,-0.02,0.892,0.35000000000000003,192.0,0.0,0.0,0.0,0.0,0.0,0.0,0.0,0.0,0.0,1677898990.888571,0.0
260,4.0,36075.961420054606,32697.42819040158,-72519.72079512129,-64827.88203094984,6501.80953762645,-1664.3555956310745,-128331.55731338946,187500.0,-0.02,0.892,0.35000000000000003,192.0,0.0,0.0,0.0,0.0,0.0,0.0,0.0,0.0,0.0,1677898990.891648,0.0
261,5.0,33015.471162256144,32649.193125867027,-71777.53112048282,-64158.91667114695,7163.331766525718,-1425.0578194925572,-131662.6824930528,187500.0,-0.02,0.892,0.35000000000000003,192.0,0.0,0.0,0.0,0.0,0.0,0.0,0.0,0.0,0.0,1677898990.894568,0.0
262,6.0,32982.32352522892,32781.71661874254,-71908.15471507964,-64206.43647985894,7081.502030074839,-1089.8487078963171,-133124.35246996314,187500.0,-0.02,0.892,0.35000000000000003,192.0,0.0,0.0,0.0,0.0,0.0,0.0,0.0,0.0,0.0,1677898990.89953,0.0
263,7.0,36146.59293253338,32850.11295677578,-72693.7067739614,-64865.99175524614,6374.203428531102,-1262.0465471800028,-129588.0382762001,187500.0,-0.02,0.892,0.35000000000000003,192.0,0.0,0.0,0.0,0.0,0.0,0.0,0.0,0.0,0.0,1677898990.903505,0.0
264,8.0,36749.195963048456,32749.172478815613,-72647.148090261,-64848.333877126446,6363.765163870474,-1647.7035460118707,-127075.27751627893,187500.0,-0.046,0.9440000000000001,0.366,192.0,254.0,144.0,29.0,128.0,11.0,112.0,0.0,0.0,0.0,1677898990.907558,0.0
265,9.0,33749.12247051269,32671.209594155505,-71897.78350565238,-64166.67272647295,7026.58379394815,-1479.4843172412297,-129661.66492243588,187500.0,-0.046,0.9440000000000001,0.366,192.0,0.0,0.0,0.0,0.0,0.0,0.0,0.0,0.0,0.0,1677898990.91154,0.0
266,10.0,32992.87354861183,32773.781749460904,-71895.07894457328,-64090.92266451391,7098.31054190523,-1108.7582837055068,-131648.6679492793,187500.0,-0.046,0.9440000000000001,0.366,192.0,0.0,0.0,0.0,0.0,0.0,0.0,0.0,0.0,0.0,1677898990.916568,0.0
267,11.0,35993.617593481256,32857.08670104584,-72698.87002693058,-64764.783056352506,6421.8349959653615,-1206.5918691863858,-128578.83466229853,187500.0,-0.046,0.9440000000000001,0.366,192.0,0.0,0.0,0.0,0.0,0.0,0.0,0.0,0.0,0.0,1677898990.919587,0.0
268,12.0,37442.56942779654,32751.20648756105,-72903.2543782299,-64987.29467240509,6207.660580594609,-1623.0272201332118,-125239.2158197422,187500.0,-0.046,0.9440000000000001,0.366,192.0,0.0,0.0,0.0,0.0,0.0,0.0,0.0,0.0,0.0,1677898990.923589,0.0
269,13.0,34686.12994982361,32632.541076247824,-72190.36784057235,-64383.95403432299,6868.959292049324,-1587.1750220268991,-127116.96351968808,187500.0,-0.046,0.9440000000000001,0.366,192.0,0.0,0.0,0.0,0.0,0.0,0.0,0.0,0.0,0.0,1677898990.927668,0.0
270,14.0,33151.81680343352,32718.90821682313,-72003.08257378133,-64189.359747095084,7129.781798098302,-1181.490860163076,-129740.0748419851,187500.0,-0.046,0.9440000000000001,0.366,192.0,0.0,0.0,0.0,0.0,0.0,0.0,0.0,0.0,0.0,1677898990.931609,0.0
271,15.0,35590.66034444098,32829.12466873225,-72734.43165235897,-64802.91513239326,6503.441214971687,-1172.103127491847,-127518.02087044966,187500.0,-0.046,0.9440000000000001,0.366,192.0,0.0,0.0,0.0,0.0,0.0,0.0,0.0,0.0,0.0,1677898990.935617,0.0
272,16.0,37609.96164202233,32766.942115657585,-73103.99539518302,-65181.10664857706,6112.620963170643,-1581.184754512877,-123784.27371791289,187500.0,-0.046,0.9440000000000001,0.366,192.0,0.0,0.0,0.0,0.0,0.0,0.0,0.0,0.0,0.0,1677898990.93969,0.0
273,17.0,35185.22205176616,32604.22141602295,-72426.93870388731,-64651.77263638647,6699.667179544828,-1697.9726192918563,-125030.71874746309,187500.0,-0.046,0.9440000000000001,0.366,192.0,0.0,0.0,0.0,0.0,0.0,0.0,0.0,0.0,0.0,1677898990.945583,0.0
274,18.0,32906.75227722553,32638.263122828383,-72012.42560296365,-64290.41198377753,7097.796451782758,-1328.1853590232563,-128318.2356736941,187500.0,-0.002,0.854,0.37,192.0,255.0,240.0,26.0,176.0,11.0,144.0,0.0,0.0,0.0,1677898990.948594,0.0
275,19.0,34757.99080824743,32774.31819132784,-72539.7256064088,-64763.55371040747,6637.596385192441,-1136.5415020634534,-127201.63192768478,187500.0,-0.002,0.854,0.37,192.0,0.0,0.0,0.0,0.0,0.0,0.0,0.0,0.0,0.0,1677898990.952601,0.0
276,20.0,37310.850597721415,32747.33963577028,-73004.15015270116,-65260.4553413934,6134.279803547836,-1490.0566923685901,-123274.31866816505,187500.0,-0.002,0.854,0.37,192.0,0.0,0.0,0.0,0.0,0.0,0.0,0.0,0.0,0.0,1677898990.955622,0.0
277,21.0,35482.54495651066,32584.842453580197,-72364.82320604601,-64789.660547931264,6616.473986682176,-1766.0560329027217,-123683.95908879746,187500.0,-0.002,0.854,0.37,192.0,0.0,0.0,0.0,0.0,0.0,0.0,0.0,0.0,0.0,1677898990.959591,0.0
278,22.0,32746.66908343662,32637.07848037225,-71718.18723895398,-64201.40733735649,7184.208295846975,-1369.8713624324039,-127341.24092355263,187500.0,-0.002,0.854,0.37,192.0,0.0,0.0,0.0,0.0,0.0,0.0,0.0,0.0,0.0,1677898990.963653,0.0
279,23.0,33980.86535702531,32781.24723210898,-72131.69451137717,-64518.44448071057,6823.674657782872,-1129.947737449138,-127274.38685588681,187500.0,-0.002,0.854,0.37,192.0,0.0,0.0,0.0,0.0,0.0,0.0,0.0,0.0,0.0,1677898990.967613,0.0
280,24.0,36993.2323090115,32825.72720357504,-72746.23337343137,-65067.47037976627,6235.443798952556,-1420.4310083903085,-123307.77922961465,187500.0,-0.002,0.854,0.37,192.0,0.0,0.0,0.0,0.0,0.0,0.0,0.0,0.0,0.0,1677898990.974612,0.0
281,25.0,36002.11125637427,32674.338838379248,-72320.43264155778,-64725.33222738889,6554.403192329788,-1747.9287681494677,-122623.27940741532,187500.0,-0.002,0.854,0.37,192.0,0.0,0.0,0.0,0.0,0.0,0.0,0.0,0.0,0.0,1677898990.978614,0.0
282,26.0,32974.27689722501,32680.731437293463,-71628.46733671038,-64059.78668448767,7198.580467531738,-1442.6933458677943,-126059.34602729631,187500.0,-0.002,0.854,0.37,192.0,0.0,0.0,0.0,0.0,0.0,0.0,0.0,0.0,0.0,1677898990.98168,0.0
283,27.0,33511.6575374195,32850.02354979796,-71944.34218935278,-64224.96607601239,6980.2933311812085,-1127.3772868367776,-126701.91397689749,187500.0,-0.028,0.916,0.40800000000000003,192.0,255.0,32.0,28.0,160.0,12.0,192.0,0.0,0.0,0.0,1677898990.984617,0.0
284,28.0,36747.296064769755,32886.65805896021,-72804.21379854844,-64917.93720936027,6215.528394642877,-1391.7090167652389,-122700.70585020851,187500.0,-0.028,0.916,0.40800000000000003,192.0,0.0,0.0,0.0,0.0,0.0,0.0,0.0,0.0,0.0,1677898990.987631,0.0
285,29.0,36706.57118637219,32719.13173426768,-72702.49100953234,-64812.21345808667,6298.296904360879,-1794.7109692944252,-120805.07675469837,187500.0,-0.028,0.916,0.40800000000000003,192.0,0.0,0.0,0.0,0.0,0.0,0.0,0.0,0.0,0.0,1677898990.991611,0.0
286,30.0,33664.029379371335,32639.78304145134,-72041.05818761089,-64145.46092098486,6944.619947030538,-1545.377259895475,-123737.89384816813,187500.0,-0.028,0.916,0.40800000000000003,192.0,0.0,0.0,0.0,0.0,0.0,0.0,0.0,0.0,0.0,1677898990.995671,0.0
287,31.0,33518.54187471174,32740.05296707785,-72209.3444716149,-64207.241142659324,6818.757274002704,-1197.584116170897,-125068.35908512582,187500.0,-0.028,0.916,0.40800000000000003,192.0,0.0,0.0,0.0,0.0,0.0,0.0,0.0,0.0,0.0,1677898990.999619,0.0
288,32.0,36731.44867795094,32820.80981979487,-73008.77696380341,-64896.81481085,6085.687111101998,-1369.357272309932,-121430.50091630232,187500.0,-0.028,0.916,0.40800000000000003,192.0,0.0,0.0,0.0,0.0,0.0,0.0,0.0,0.0,0.0,1677898991.003665,0.0
289,33.0,37443.955235952766,32697.048210745837,-73049.65830441217,-64969.56973905203,5983.047900563229,-1792.5875535711712,-118648.3569322058,187500.0,-0.028,0.916,0.40800000000000003,192.0,0.0,0.0,0.0,0.0,0.0,0.0,0.0,0.0,0.0,1677898991.006707,0.0
290,34.0,34157.22062077768,32566.20109870447,-72295.6669087013,-64308.20397236395,6650.001603365136,-1651.7045082693708,-121180.72017201426,187500.0,-0.028,0.916,0.40800000000000003,192.0,0.0,0.0,0.0,0.0,0.0,0.0,0.0,0.0,0.0,1677898991.011751,0.0
291,35.0,32942.4256613762,32599.5946049207,-72224.72247180015,-64210.28097990525,6763.392002986909,-1233.9504043996817,-123492.60580451558,187500.0,-0.028,0.916,0.40800000000000003,192.0,0.0,0.0,0.0,0.0,0.0,0.0,0.0,0.0,0.0,1677898991.015714,1.0
292,36.0,35769.80957625026,32610.50225621489,-73024.82551632232,-64917.98191284918,6077.327558675714,-1329.1688357792898,-120727.4491462051,187500.0,-0.028,0.916,0.40800000000000003,192.0,0.0,0.0,0.0,0.0,0.0,0.0,0.0,0.0,0.0,1677898991.019773,0.0
293,37.0,37239.4367741867,32475.408312727013,-73220.49268728407,-65195.501172006276,5894.199716353383,-1765.9219224359897,-117457.81361553833,187500.0,-0.096,0.866,0.398,192.0,253.0,0.0,27.0,16.0,12.0,112.0,0.0,0.0,0.0,1677898991.023672,0.0
294,38.0,34239.05035722856,32356.96641885834,-72363.2809356786,-64545.95947813505,6652.348536532943,-1723.5653666931828,-119551.18859424457,187500.0,-0.096,0.866,0.398,192.0,0.0,0.0,0.0,0.0,0.0,0.0,0.0,0.0,0.0,1677898991.027662,0.0
295,39.0,32447.200411224418,32449.055606014208,-72022.17096354616,-64288.15445758754,7054.165846605998,-1299.7315883316503,-122734.23346689147,187500.0,-0.096,0.866,0.398,192.0,0.0,0.0,0.0,0.0,0.0,0.0,0.0,0.0,0.0,1677898991.031733,0.0
296,40.0,35020.802619552924,32606.70245965749,-72694.06440187269,-64938.74668344816,6554.626709774341,-1295.4847568851421,-121046.6767605158,187500.0,-0.096,0.866,0.398,192.0,0.0,0.0,0.0,0.0,0.0,0.0,0.0,0.0,0.0,1677898991.034664,0.0
297,41.0,37316.86321697989,32624.628558710643,-73022.56799013233,-65399.32672969422,6212.08622599676,-1714.8034828667026,-117518.02921510092,187500.0,-0.096,0.866,0.398,192.0,0.0,0.0,0.0,0.0,0.0,0.0,0.0,0.0,0.0,1677898991.039658,0.0
298,42.0,34958.5530112449,32523.710432494932,-72257.46777742717,-64894.33376721547,6824.166396160888,-1808.1667194565202,-118989.2880903826,187500.0,-0.096,0.866,0.398,192.0,0.0,0.0,0.0,0.0,0.0,0.0,0.0,0.0,0.0,1677898991.043696,0.0
299,43.0,32557.930953256007,32627.02019536736,-71728.80431757025,-64513.37063471921,7279.5384859488595,-1336.8801876163707,-122744.8728972522,187500.0,-0.096,0.866,0.398,192.0,0.0,0.0,0.0,0.0,0.0,0.0,0.0,0.0,0.0,1677898991.047755,0.0
300,44.0,34332.145372884916,32790.076171168825,-72269.20244326621,-65054.5063679822,6755.881816849926,-988.2600293469465,-122059.05432213002,187500.0,-0.096,0.866,0.398,192.0,0.0,0.0,0.0,0.0,0.0,0.0,0.0,0.0,0.0,1677898991.051686,0.0
301,45.0,37027.765754194945,32808.71752604455,-72816.84253416568,-65604.02400541592,6204.5313363708665,-1143.649356800241,-118244.88559304304,187500.0,-0.096,0.866,0.398,192.0,0.0,0.0,0.0,0.0,0.0,0.0,0.0,0.0,0.0,1677898991.057697,0.0
302,46.0,35246.71170076272,32656.524498048366,-72269.58242292196,-65156.8773575875,6680.80230722455,-1431.4727701512302,-118603.0946496838,187500.0,-0.096,0.866,0.398,192.0,0.0,0.0,0.0,0.0,0.0,0.0,0.0,0.0,0.0,1677898991.060754,0.0
303,47.0,32213.311757244082,32657.88795446014,-71689.55465430673,-64593.61339731377,7240.422933152072,-1086.6971119281188,-122308.3209762956,187500.0,0.024,0.882,0.41200000000000003,192.0,0.0,192.0,27.0,144.0,12.0,224.0,0.0,0.0,0.0,1677898991.063713,0.0
304,48.0,33245.85059235699,32794.23359563752,-72104.69360407515,-64895.69722362724,6850.87673078498,-549.2494165002604,-122359.61822982052,187500.0,0.024,0.882,0.41200000000000003,192.0,0.0,0.0,0.0,0.0,0.0,0.0,0.0,0.0,0.0,1677898991.067798,0.0
305,49.0,36318.09786773895,32865.64741917222,-72748.80382404373,-65449.126416340645,6122.791006897808,-533.558491892635,-118306.64346297306,187500.0,0.024,0.882,0.41200000000000003,192.0,0.0,0.0,0.0,0.0,0.0,0.0,0.0,0.0,0.0,1677898991.071709,0.0
306,50.0,35466.004665613735,32722.126868024694,-72329.28393236207,-65084.99414741924,6362.334652225334,-1048.6097393762755,-117279.40199129606,187500.0,0.024,0.882,0.41200000000000003,192.0,0.0,0.0,0.0,0.0,0.0,0.0,0.0,0.0,0.0,1677898991.07577,0.0
307,51.0,32407.101381671597,32662.581820795756,-71641.23018279436,-64384.445772701,6961.651976305482,-989.3552648252565,-120387.18854036195,187500.0,0.024,0.882,0.41200000000000003,192.0,0.0,0.0,0.0,0.0,0.0,0.0,0.0,0.0,0.0,1677898991.079787,0.0
308,52.0,32902.95248066813,32744.791536902376,-71964.14583494018,-64529.30742851585,6650.158065576323,-569.7236144213217,-120820.18653395017,187500.0,0.024,0.882,0.41200000000000003,192.0,0.0,0.0,0.0,0.0,0.0,0.0,0.0,0.0,0.0,1677898991.082721,0.0
309,53.0,36308.86659727891,32777.24626985148,-72803.6326531926,-65152.786988352185,5889.215277339849,-608.0121526732627,-116564.59320361534,187500.0,0.024,0.882,0.41200000000000003,192.0,0.0,0.0,0.0,0.0,0.0,0.0,0.0,0.0,0.0,1677898991.08676,0.0
310,54.0,36560.94957124586,32605.36135499017,-72692.47742801635,-65029.49476593671,5967.826362589164,-1191.5938486568748,-114156.72918042293,187500.0,0.024,0.882,0.41200000000000003,192.0,0.0,0.0,0.0,0.0,0.0,0.0,0.0,0.0,0.0,1677898991.090719,0.0
311,55.0,33616.777791592816,32479.67749591798,-71990.16326548616,-64352.818054296746,6621.190204762245,-1312.4273791822648,-116667.50063508758,187500.0,0.024,0.882,0.41200000000000003,192.0,0.0,0.0,0.0,0.0,0.0,0.0,0.0,0.0,0.0,1677898991.094722,0.0
312,56.0,33490.021048786766,32515.44028704647,-72157.62253494532,-64387.1503337801,6520.629706457818,-992.9315439381056,-117875.47831243019,187500.0,0.024,0.882,0.41200000000000003,192.0,0.0,0.0,0.0,0.0,0.0,0.0,0.0,0.0,0.0,1677898991.10074,0.0
313,57.0,36866.40851097208,32530.86299072063,-73023.26089421046,-65091.00676667771,5781.077537665074,-1058.332748214334,-114079.59331030767,187500.0,-0.02,0.902,0.372,192.0,255.0,96.0,28.0,48.0,11.0,160.0,0.0,0.0,0.0,1677898991.103913,0.0
314,58.0,37915.5993957042,32370.913907398455,-73130.90689550721,-65210.70035823588,5678.773603293133,-1573.6522166314385,-110864.160759945,187500.0,-0.02,0.902,0.372,192.0,0.0,0.0,0.0,0.0,0.0,0.0,0.0,0.0,0.0,1677898991.108763,0.0
315,59.0,34824.88957940216,32242.860763414,-72399.78133437411,-64568.71355399055,6374.695166909119,-1644.7307639993148,-112981.27329126278,187500.0,-0.02,0.902,0.372,192.0,0.0,0.0,0.0,0.0,0.0,0.0,0.0,0.0,0.0,1677898991.11284,0.0
316,60.0,33492.949127310414,32337.25218024876,-72305.03228962807,-64432.39026455764,6529.302183306478,-1256.5256662995419,-115103.50437206082,187500.0,-0.02,0.902,0.372,192.0,0.0,0.0,0.0,0.0,0.0,0.0,0.0,0.0,0.0,1677898991.115676,0.0
317,61.0,36057.297713434426,32422.032346967742,-73082.8506449283,-65103.009653450215,5863.264902027238,-1157.8650662738164,-112168.85443554574,187500.0,-0.02,0.902,0.372,192.0,0.0,0.0,0.0,0.0,0.0,0.0,0.0,0.0,0.0,1677898991.118732,0.0
318,62.0,37504.416704704374,32353.8371746346,-73318.4603832317,-65379.05369747325,5603.53763145657,-1555.6143588560055,-108500.88846694095,187500.0,-0.02,0.902,0.372,192.0,0.0,0.0,0.0,0.0,0.0,0.0,0.0,0.0,0.0,1677898991.122769,0.0
319,63.0,34586.530576530764,32252.539068763148,-72564.11135960954,-64757.89871906027,6248.161941547625,-1658.342976372597,-110169.64735622972,187500.0,-0.02,0.902,0.372,192.0,0.0,0.0,0.0,0.0,0.0,0.0,0.0,0.0,0.0,1677898991.1278,0.0
320,64.0,32530.05832792024,32339.375595972015,-72261.84871934041,-64458.94413697054,6559.924073210249,-1240.0524306359805,-113168.29033712034,187500.0,-0.02,0.902,0.372,192.0,0.0,0.0,0.0,0.0,0.0,0.0,0.0,0.0,0.0,1677898991.137817,0.0
321,65.0,34643.5275248918,32484.19254829795,-72911.56922716727,-65009.86993430495,6003.2538775508265,-1050.464934166066,-111389.44910638919,187500.0,-0.02,0.902,0.372,192.0,0.0,0.0,0.0,0.0,0.0,0.0,0.0,0.0,0.0,1677898991.140879,0.0
322,66.0,36798.07922817221,32494.206129813927,-73292.1970834967,-65398.790287827294,5602.598858189447,-1360.193057083256,-107571.21235981135,187500.0,-0.02,0.902,0.372,192.0,0.0,0.0,0.0,0.0,0.0,0.0,0.0,0.0,0.0,1677898991.144813,0.0
323,67.0,34473.90013622047,32386.671887239445,-72603.42807810642,-64850.74786552762,6171.361347599191,-1541.2421871712431,-108574.35865096554,187500.0,-0.058,0.916,0.324,192.0,254.0,48.0,28.0,160.0,10.0,32.0,0.0,0.0,0.0,1677898991.147879,0.0
324,68.0,31880.427227071195,32451.737815348843,-72099.95503425063,-64388.826714614246,6656.8635889129155,-1177.5346013944866,-112105.7554609484,187500.0,-0.058,0.916,0.324,192.0,0.0,0.0,0.0,0.0,0.0,0.0,0.0,0.0,0.0,1677898991.150841,0.0
325,69.0,33402.75983843325,32597.694706642,-72605.66325255195,-64803.31746379346,6219.059970266816,-904.5303946173663,-111467.68021198276,187500.0,-0.058,0.916,0.324,192.0,0.0,0.0,0.0,0.0,0.0,0.0,0.0,0.0,0.0,1677898991.153838,0.0
326,70.0,36143.79896447647,32599.773418876342,-73151.00111377252,-65317.25112405433,5661.965091462743,-1117.430760554166,-107637.1500059545,187500.0,-0.058,0.916,0.324,192.0,0.0,0.0,0.0,0.0,0.0,0.0,0.0,0.0,0.0,1677898991.157839,0.0
327,71.0,34737.606017304184,32457.593972396135,-72586.70897325384,-64891.42804043628,6110.586954425211,-1375.0122636571245,-107777.5413128783,187500.0,-0.058,0.916,0.324,192.0,0.0,0.0,0.0,0.0,0.0,0.0,0.0,0.0,0.0,1677898991.160914,0.0
328,72.0,32032.754365534114,32465.394731211036,-71936.2732096044,-64358.540100877304,6713.145281451379,-1082.919667115172,-111474.11751438589,187500.0,-0.058,0.916,0.324,192.0,0.0,0.0,0.0,0.0,0.0,0.0,0.0,0.0,0.0,1677898991.163841,0.0
329,73.0,33173.76621648863,32553.326493898214,-72323.0254439146,-64699.31479684291,6369.420155217666,-788.0107507718504,-111770.0322592297,187500.0,-0.058,0.916,0.324,192.0,0.0,0.0,0.0,0.0,0.0,0.0,0.0,0.0,0.0,1677898991.167919,0.0
330,74.0,36454.28704670513,32569.06212199475,-72968.47676855049,-65287.702117884415,5747.125237837463,-949.5468079503546,-107942.74305614748,187500.0,-0.058,0.916,0.324,192.0,0.0,0.0,0.0,0.0,0.0,0.0,0.0,0.0,0.0,1677898991.170839,0.0
331,75.0,36015.05291641389,32429.31901566017,-72596.67785128091,-65013.20034422879,6025.963249917419,-1253.5305325425306,-106969.16812290766,187500.0,-0.058,0.916,0.324,192.0,0.0,0.0,0.0,0.0,0.0,0.0,0.0,0.0,0.0,1677898991.174906,0.0
332,76.0,33094.99866902813,32393.60092802059,-71880.50560718842,-64391.97831058244,6726.310458935554,-1095.950734132616,-110353.8927857748,187500.0,-0.058,0.916,0.324,192.0,0.0,0.0,0.0,0.0,0.0,0.0,0.0,0.0,0.0,1677898991.18088,0.0
333,77.0,33395.65198369646,32549.705511296455,-72070.47308331408,-64548.50757700296,6636.679963669773,-748.8951979750632,-111435.09136856692,187500.0,-0.088,0.972,0.31,192.0,253.0,64.0,30.0,96.0,9.0,176.0,0.0,0.0,0.0,1677898991.183809,0.0
334,78.0,36576.97577202031,32637.74903270591,-72811.29930154077,-65232.135681168525,5954.862350805086,-885.3749496191681,-107791.0417665293,187500.0,-0.088,0.972,0.31,192.0,0.0,0.0,0.0,0.0,0.0,0.0,0.0,0.0,0.0,1677898991.187906,0.0
335,79.0,36798.548614805775,32527.01849067432,-72687.56004423619,-65166.71212514784,6000.348150771636,-1245.260387094067,-105745.8571488687,187500.0,-0.088,0.972,0.31,192.0,0.0,0.0,0.0,0.0,0.0,0.0,0.0,0.0,0.0,1677898991.192919,0.0
336,80.0,33686.247013359905,32462.444300942934,-71971.96894549954,-64511.04605329586,6650.068658598502,-1089.781652662951,-108646.5994890451,187500.0,-0.088,0.972,0.31,192.0,0.0,0.0,0.0,0.0,0.0,0.0,0.0,0.0,0.0,1677898991.196847,0.0
337,81.0,33101.681840620266,32594.006668806873,-72037.23603930903,-64498.43966942307,6696.1356039208895,-729.1139041321164,-110438.47178679369,187500.0,-0.088,0.972,0.31,192.0,0.0,0.0,0.0,0.0,0.0,0.0,0.0,0.0,0.0,1677898991.199813,0.0
338,82.0,36067.75832983951,32726.10547853774,-72813.55682773076,-65143.13103474749,6073.483058629401,-769.4588028739456,-107217.07132066147,187500.0,-0.088,0.972,0.31,192.0,0.0,0.0,0.0,0.0,0.0,0.0,0.0,0.0,0.0,1677898991.203839,0.0
339,83.0,37087.91429852418,32664.191146396537,-72921.29223600533,-65256.588489602625,5965.993519543829,-1135.2227491405904,-104274.17359044238,187500.0,-0.088,0.972,0.31,192.0,0.0,0.0,0.0,0.0,0.0,0.0,0.0,0.0,0.0,1677898991.207838,0.0
340,84.0,34124.25179770611,32583.702514612978,-72206.01406169106,-64614.333464423835,6640.949146860737,-1048.5203323984542,-106540.97575437734,187500.0,-0.088,0.972,0.31,192.0,0.0,0.0,0.0,0.0,0.0,0.0,0.0,0.0,0.0,1677898991.21384,0.0
341,85.0,32771.4348162931,32695.52829212288,-72081.44778984164,-64450.964564199996,6826.535681073151,-689.70777865741,-109023.96399068405,187500.0,-0.088,0.972,0.31,192.0,0.0,0.0,0.0,0.0,0.0,0.0,0.0,0.0,0.0,1677898991.216844,0.0
342,86.0,35382.65501053989,32860.5065179475,-72760.94082128297,-65033.42867296084,6290.093814145782,-690.4900897133458,-106562.58989126563,187500.0,-0.088,0.972,0.31,192.0,0.0,0.0,0.0,0.0,0.0,0.0,0.0,0.0,0.0,1677898991.220835,0.0
343,87.0,37156.40004353524,32858.941895835625,-73004.01604223443,-65296.10637379961,6043.062334425728,-1023.8440065197954,-103047.50985473512,187500.0,-0.10200000000000001,0.936,0.308,192.0,252.0,208.0,29.0,64.0,9.0,160.0,0.0,0.0,0.0,1677898991.223869,0.0
344,88.0,34542.60939867609,32750.647693949664,-72300.47253375918,-64716.70445402914,6667.100687873446,-1043.7147073405633,-104581.59948368066,187500.0,-0.10200000000000001,0.936,0.308,192.0,0.0,0.0,0.0,0.0,0.0,0.0,0.0,0.0,0.0,1677898991.226832,0.0
345,89.0,32625.679090700043,32831.046918755404,-71957.77558777042,-64387.46325820247,7043.191140078443,-644.4454961354132,-107606.48341256184,187500.0,-0.10200000000000001,0.936,0.308,192.0,0.0,0.0,0.0,0.0,0.0,0.0,0.0,0.0,0.0,1677898991.230945,0.0
346,90.0,34919.035127047915,32955.769652816016,-72574.03553414768,-64908.66123541132,6542.467360790653,-532.5303116476907,-105977.0635935144,187500.0,-0.10200000000000001,0.936,0.308,192.0,0.0,0.0,0.0,0.0,0.0,0.0,0.0,0.0,0.0,1677898991.234859,0.0
347,91.0,37453.454727346274,32979.127225771816,-72957.14443411166,-65284.34935621612,6172.501286566411,-826.9474896129954,-102066.0894591915,187500.0,-0.10200000000000001,0.936,0.308,192.0,0.0,0.0,0.0,0.0,0.0,0.0,0.0,0.0,0.0,1677898991.238861,0.0
348,92.0,35526.22026517633,32853.73393937754,-72318.64450200135,-64762.190253995694,6692.179345152301,-914.4322174110672,-102672.38052754171,187500.0,-0.10200000000000001,0.936,0.308,192.0,0.0,0.0,0.0,0.0,0.0,0.0,0.0,0.0,0.0,1677898991.243857,0.0
349,93.0,33106.50981742261,32906.059373147415,-71807.08012665274,-64264.12633229808,7166.013975860355,-532.5750151366013,-105914.38930206173,187500.0,-0.10200000000000001,0.936,0.308,192.0,0.0,0.0,0.0,0.0,0.0,0.0,0.0,0.0,0.0,1677898991.247945,0.0
350,94.0,34714.91899668205,33068.64596231532,-72270.52119618907,-64621.44131916062,6802.507555783696,-311.4939107291592,-105131.72061821469,187500.0,-0.10200000000000001,0.936,0.308,192.0,0.0,0.0,0.0,0.0,0.0,0.0,0.0,0.0,0.0,1677898991.251824,0.0
351,95.0,37649.45717447486,33130.89557062335,-72808.2818160393,-65110.29632214265,6272.5029912594555,-582.8887919054976,-100965.89189361238,187500.0,-0.10200000000000001,0.936,0.308,192.0,0.0,0.0,0.0,0.0,0.0,0.0,0.0,0.0,0.0,1677898991.255812,0.0
352,96.0,36411.662270028864,32978.36726646034,-72348.03704596008,-64750.05325675646,6625.235870508656,-786.8037565712639,-100471.1136783497,187500.0,-0.09,0.914,0.336,192.0,253.0,48.0,28.0,144.0,10.0,128.0,0.0,0.0,0.0,1677898991.259932,0.0
353,97.0,33606.22776820991,32932.7250042826,-71756.25225976137,-64212.44909911742,7194.199525618497,-494.3088286291157,-103625.95064949401,187500.0,-0.09,0.914,0.336,192.0,0.0,0.0,0.0,0.0,0.0,0.0,0.0,0.0,0.0,1677898991.263867,0.0
354,98.0,34542.96702658737,33073.76451179558,-72048.8589464258,-64438.98402917195,6977.611121846571,-260.1519537153189,-103690.56954271431,187500.0,-0.09,0.914,0.336,192.0,0.0,0.0,0.0,0.0,0.0,0.0,0.0,0.0,0.0,1677898991.267881,0.0
355,99.0,37725.408402133995,33145.155983585835,-72665.0518375697,-65016.933085552824,6377.153858799203,-481.6130377785013,-99577.51328677098,187500.0,-0.09,0.914,0.336,192.0,0.0,0.0,0.0,0.0,0.0,0.0,0.0,0.0,0.0,1677898991.272967,0.0
356,100.0,37236.106364262865,33008.00567960807,-72329.59685678445,-64808.81599292946,6575.279721651044,-764.0943842046719,-98099.77240559726,187500.0,-0.09,0.914,0.336,192.0,0.0,0.0,0.0,0.0,0.0,0.0,0.0,0.0,0.0,1677898991.275882,0.0
357,101.0,34063.07507313193,32945.8231265334,-71617.82790634966,-64212.33734039514,7210.538650815327,-557.7430793932772,-101141.04016316416,187500.0,-0.09,0.914,0.336,192.0,0.0,0.0,0.0,0.0,0.0,0.0,0.0,0.0,0.0,1677898991.280865,0.0
358,102.0,34007.754505605044,33070.836433271936,-71771.00441110187,-64339.33995239019,7113.196803712464,-286.83993659495553,-102158.15629460292,187500.0,-0.09,0.914,0.336,192.0,0.0,0.0,0.0,0.0,0.0,0.0,0.0,0.0,0.0,1677898991.284988,0.0
359,103.0,37044.10487939178,33174.4814723112,-72470.54695731962,-64979.29274789009,6462.8057435519395,-448.7112699402893,-98508.96579134057,187500.0,-0.09,0.914,0.336,192.0,0.0,0.0,0.0,0.0,0.0,0.0,0.0,0.0,0.0,1677898991.287874,0.0
360,104.0,37386.265383513615,33059.660561044286,-72359.10115946546,-64950.79427370957,6497.830927113406,-808.3284864817247,-96269.2762934299,187500.0,-0.09,0.914,0.336,192.0,0.0,0.0,0.0,0.0,0.0,0.0,0.0,0.0,0.0,1677898991.290968,0.0
361,105.0,34260.150403994376,32935.764841528515,-71661.90554641552,-64320.296266114274,7110.514594377827,-667.2219237353711,-99013.91405033041,187500.0,-0.09,0.914,0.336,192.0,0.0,0.0,0.0,0.0,0.0,0.0,0.0,0.0,0.0,1677898991.294873,0.0
362,106.0,33514.22798803187,32993.40999047876,-71726.03270125779,-64300.4255652935,7097.438823871473,-388.8980017778876,-100908.04557896205,187500.0,-0.014,0.906,0.364,192.0,255.0,144.0,28.0,80.0,11.0,96.0,0.0,0.0,0.0,1677898991.299887,0.0
363,107.0,36458.89150606293,33111.15898026931,-72456.1971373793,-64886.53300840056,6466.337319175878,-466.72677597126676,-97880.56884772406,187500.0,-0.014,0.906,0.364,192.0,0.0,0.0,0.0,0.0,0.0,0.0,0.0,0.0,0.0,1677898991.303976,0.0
364,108.0,37660.29777053568,33033.06198514247,-72583.64678426347,-64988.635777072406,6306.075311431327,-835.4635042504674,-94876.69555863089,187500.0,-0.014,0.906,0.364,192.0,0.0,0.0,0.0,0.0,0.0,0.0,0.0,0.0,0.0,1677898991.306868,0.0
365,109.0,34735.12497366965,32865.088625560835,-71945.66094227564,-64392.157124538084,6896.653103429449,-786.0437972597834,-96970.31640652614,187500.0,-0.014,0.906,0.364,192.0,0.0,0.0,0.0,0.0,0.0,0.0,0.0,0.0,0.0,1677898991.310867,0.0
366,110.0,33272.96325838128,32903.80184695743,-71825.07328093926,-64215.19836368542,7051.148361104532,-411.7638363556667,-99468.39207034017,187500.0,-0.014,0.906,0.364,192.0,0.0,0.0,0.0,0.0,0.0,0.0,0.0,0.0,0.0,1677898991.314912,0.0
367,111.0,35860.82587967228,33028.412822295766,-72509.61780662749,-64776.07068730244,6454.021507981004,-401.9290687953316,-97130.10902763714,187500.0,-0.014,0.906,0.364,192.0,0.0,0.0,0.0,0.0,0.0,0.0,0.0,0.0,0.0,1677898991.318899,0.0
368,112.0,37805.53940600627,32957.513088883534,-72825.49265926989,-65089.82212422158,6103.859079344164,-764.7425847938758,-93490.8650506574,187500.0,-0.014,0.906,0.364,192.0,0.0,0.0,0.0,0.0,0.0,0.0,0.0,0.0,0.0,1677898991.322897,0.0
369,113.0,35298.18776824329,32779.593203019285,-72149.21827903012,-64540.70681818805,6662.2056558377335,-804.1710620130375,-94770.79299340166,187500.0,-0.014,0.906,0.364,192.0,0.0,0.0,0.0,0.0,0.0,0.0,0.0,0.0,0.0,1677898991.328008,0.0
370,114.0,33232.10426951698,32787.01398217845,-71796.75362071439,-64219.624009087565,6990.128098741544,-464.4916015257361,-97750.54875022755,187500.0,-0.014,0.906,0.364,192.0,0.0,0.0,0.0,0.0,0.0,0.0,0.0,0.0,0.0,1677898991.330895,0.0
371,115.0,35351.16140260237,32901.589024256355,-72359.19056644327,-64709.79776499245,6473.579284379397,-392.9883710132088,-96288.99053203948,187500.0,-0.014,0.906,0.364,192.0,0.0,0.0,0.0,0.0,0.0,0.0,0.0,0.0,0.0,1677898991.334866,0.0
372,116.0,37925.635328964636,32891.84366367384,-72782.82317910471,-65136.64902885545,6031.081799397683,-732.9137006895186,-92382.57615358545,187500.0,0.046,0.9,0.366,192.0,1.0,112.0,28.0,32.0,11.0,112.0,0.0,0.0,0.0,1677898991.338999,0.0
373,117.0,36009.26381459997,32706.61475737271,-72219.58157057544,-64709.10486091434,6485.604522896353,-875.1154989141821,-92840.67515619697,187500.0,0.046,0.9,0.366,192.0,0.0,0.0,0.0,0.0,0.0,0.0,0.0,0.0,0.0,1677898991.342895,0.0
374,118.0,33329.11084045301,32685.67117281809,-71751.64780040357,-64299.68795772648,6927.856138689058,-568.0472335871737,-96145.0452977473,187500.0,0.046,0.9,0.366,192.0,0.0,0.0,0.0,0.0,0.0,0.0,0.0,0.0,0.0,1677898991.34692,0.0
375,119.0,34619.09706820215,32843.630950883744,-72189.11614288285,-64665.429552248665,6575.190314673223,-374.52583009312514,-95689.3826352814,187500.0,0.046,0.9,0.366,192.0,0.0,0.0,0.0,0.0,0.0,0.0,0.0,0.0,0.0,1677898991.352924,0.0
376,120.0,37426.56557876654,32877.91852687818,-72786.9806035734,-65227.10653866608,6000.214040304904,-641.7409350563211,-91721.54566306421,187500.0,0.046,0.9,0.366,192.0,0.0,0.0,0.0,0.0,0.0,0.0,0.0,0.0,0.0,1677898991.357029,0.0
377,121.0,36208.73078211913,32682.69839080553,-72389.65599413586,-64944.155805606344,6301.224982884524,-876.0095686923944,-91189.46238630562,187500.0,0.046,0.9,0.366,192.0,0.0,0.0,0.0,0.0,0.0,0.0,0.0,0.0,0.0,1677898991.359923,0.0
378,122.0,33203.874016269925,32626.573160478256,-71799.9499201715,-64409.83735440223,6850.988489507257,-586.0627396181512,-94476.21935322515,187500.0,0.046,0.9,0.366,192.0,0.0,0.0,0.0,0.0,0.0,0.0,0.0,0.0,0.0,1677898991.364027,0.0
379,123.0,33852.40988164066,32744.925647369106,-72135.82958410139,-64663.14967431423,6576.084384451436,-371.5753998250246,-94873.23103824032,187500.0,0.046,0.9,0.366,192.0,0.0,0.0,0.0,0.0,0.0,0.0,0.0,0.0,0.0,1677898991.369028,0.0
380,124.0,37010.06317258634,32801.274395140936,-72828.44308953799,-65277.46501892388,5920.21714689936,-594.0199606442405,-90995.56100315583,187500.0,0.046,0.9,0.366,192.0,0.0,0.0,0.0,0.0,0.0,0.0,0.0,0.0,0.0,1677898991.37292,0.0
381,125.0,36727.64888139354,32638.151364106106,-72611.74292704379,-65128.26712468471,6067.671605071021,-874.020263435872,-89439.0078710327,187500.0,0.046,0.9,0.366,192.0,0.0,0.0,0.0,0.0,0.0,0.0,0.0,0.0,0.0,1677898991.375992,0.0
382,126.0,33641.588227938206,32537.121479168116,-71954.55693656886,-64532.190803550584,6686.613760782929,-667.9148278134857,-92422.07168603799,187500.0,0.094,0.908,0.356,192.0,2.0,240.0,28.0,96.0,11.0,32.0,0.0,0.0,0.0,1677898991.378949,0.0
383,127.0,33569.74972125885,32641.66058798559,-72112.80728731243,-64619.02733075945,6577.000805974103,-387.400434899382,-93612.12326432744,187500.0,0.094,0.908,0.356,192.0,0.0,0.0,0.0,0.0,0.0,0.0,0.0,0.0,0.0,1677898991.385939,0.0
384,128.0,36694.56829959968,32726.932493082586,-72855.10872067318,-65255.18032970194,5892.970370408341,-543.1250385195063,-90064.2085151921,187500.0,0.094,0.908,0.356,192.0,0.0,0.0,0.0,0.0,0.0,0.0,0.0,0.0,0.0,1677898991.389945,0.0
385,129.0,37252.959579582166,32598.70053514249,-72827.90664767107,-65266.89264379653,5869.702204430367,-885.7772810193636,-87577.50988930582,187500.0,0.094,0.908,0.356,192.0,0.0,0.0,0.0,0.0,0.0,0.0,0.0,0.0,0.0,1677898991.393013,0.0
386,130.0,34220.25254014165,32470.17800452447,-72127.58179039738,-64639.9038600807,6489.001988053559,-751.6221107986106,-90052.2056284196,187500.0,0.094,0.908,0.356,192.0,0.0,0.0,0.0,0.0,0.0,0.0,0.0,0.0,0.0,1677898991.395977,0.0
387,131.0,33417.71315547385,32561.216659690937,-72095.79760978193,-64551.65917297116,6578.408965874787,-429.4217144753593,-91979.0154074449,187500.0,0.094,0.908,0.356,192.0,0.0,0.0,0.0,0.0,0.0,0.0,0.0,0.0,0.0,1677898991.399918,0.0
388,132.0,36355.06765306803,32673.08714068975,-72823.25748482437,-65164.34284023558,5931.728295293844,-505.9987909792413,-89016.73871478304,187500.0,0.094,0.908,0.356,192.0,0.0,0.0,0.0,0.0,0.0,0.0,0.0,0.0,0.0,1677898991.402973,0.0
389,133.0,37703.83896873462,32584.68599136901,-72979.40677158914,-65346.487205801874,5735.614089442979,-885.8443362527295,-85795.69587656211,187500.0,0.094,0.908,0.356,192.0,0.0,0.0,0.0,0.0,0.0,0.0,0.0,0.0,0.0,1677898991.406999,0.0
390,134.0,34811.76910540689,32448.206239724906,-72262.02753329606,-64729.266134413025,6368.861361606284,-870.7345570009419,-87654.80222163227,187500.0,0.094,0.908,0.356,192.0,0.0,0.0,0.0,0.0,0.0,0.0,0.0,0.0,0.0,1677898991.411949,0.0
391,135.0,33128.3698234999,32521.028223160294,-72049.261277826,-64493.5222856429,6602.057111508502,-528.5740528791014,-90209.04781926249,187500.0,0.094,0.908,0.356,192.0,0.0,0.0,0.0,0.0,0.0,0.0,0.0,0.0,0.0,1677898991.414966,0.0
392,136.0,35494.88311944999,32665.956934208505,-72692.61153848309,-65034.52390843915,6050.840741496175,-510.9161747594088,-88027.07052553541,187500.0,0.092,0.908,0.342,192.0,2.0,224.0,28.0,96.0,10.0,176.0,0.0,0.0,0.0,1677898991.419049,0.0
393,137.0,37467.916306008854,32642.800526952808,-73005.51360911294,-65349.772912236804,5718.872632845954,-865.8842284541403,-84339.92676018795,187500.0,0.092,0.908,0.342,192.0,0.0,0.0,0.0,0.0,0.0,0.0,0.0,0.0,0.0,1677898991.42408,0.0
394,138.0,35008.375049635775,32474.13426329306,-72360.55402285505,-64816.28147557753,6265.99863362296,-954.1959707970585,-85466.78995690227,187500.0,0.092,0.908,0.342,192.0,0.0,0.0,0.0,0.0,0.0,0.0,0.0,0.0,0.0,1677898991.426973,0.0
395,139.0,32719.019975545405,32517.273130091806,-71970.69489606559,-64434.91601168109,6654.516655745108,-620.1044464235838,-88580.34325603762,187500.0,0.092,0.908,0.342,192.0,0.0,0.0,0.0,0.0,0.0,0.0,0.0,0.0,0.0,1677898991.431062,0.0
396,140.0,34571.13022460106,32659.51963180538,-72530.0696528041,-64896.077203282985,6186.046443706327,-547.4389251993806,-87416.2867565497,187500.0,0.092,0.908,0.342,192.0,0.0,0.0,0.0,0.0,0.0,0.0,0.0,0.0,0.0,1677898991.434974,0.0
397,141.0,37143.79365966245,32658.46909981598,-73023.52911514392,-65362.69222053197,5701.393568681904,-879.5858478052435,-83582.94023072008,187500.0,0.092,0.908,0.342,192.0,0.0,0.0,0.0,0.0,0.0,0.0,0.0,0.0,0.0,1677898991.439979,0.0
398,142.0,35395.23904266823,32508.265377076314,-72453.47022455576,-64909.39884297834,6181.88901923764,-1036.6068526037757,-83997.83331129949,187500.0,0.092,0.908,0.342,192.0,0.0,0.0,0.0,0.0,0.0,0.0,0.0,0.0,0.0,1677898991.442967,0.0
399,143.0,32712.068583019805,32481.935022107962,-71964.50346285147,-64459.23470964846,6649.129885331379,-754.416078855524,-87495.81426332168,187500.0,0.092,0.908,0.342,192.0,0.0,0.0,0.0,0.0,0.0,0.0,0.0,0.0,0.0,1677898991.446962,0.0
400,144.0,33975.05390346693,32613.631500438634,-72400.63070066342,-64803.18335332673,6302.990770696494,-595.0481408891847,-87421.18178858541,187500.0,0.092,0.908,0.342,192.0,0.0,0.0,0.0,0.0,0.0,0.0,0.0,0.0,0.0,1677898991.450944,0.0
401,145.0,36970.76880583391,32658.46909981598,-73011.6826905826,-65353.639764027575,5720.772531124656,-868.7452517444196,-83715.48607534004,187500.0,0.092,0.908,0.342,192.0,0.0,0.0,0.0,0.0,0.0,0.0,0.0,0.0,0.0,1677898991.455027,0.0
402,146.0,35996.63507898272,32506.119609608606,-72615.47566836783,-65054.618126704474,6044.135218159583,-1101.6727807131745,-83280.74464568433,187500.0,0.082,0.934,0.336,192.0,2.0,144.0,29.0,48.0,10.0,128.0,0.0,0.0,0.0,1677898991.458993,0.0
403,147.0,33009.36913601984,32457.6610276295,-71993.98541378802,-64495.64570136616,6631.024972322581,-852.3614230586795,-86849.98295903004,187500.0,0.082,0.934,0.336,192.0,0.0,0.0,0.0,0.0,0.0,0.0,0.0,0.0,0.0,1677898991.462994,0.0
404,148.0,33539.530162755276,32612.51391321587,-72240.3016376855,-64660.266299279494,6462.626929596297,-587.2250303298272,-87777.40153996964,187500.0,0.082,0.934,0.336,192.0,0.0,0.0,0.0,0.0,0.0,0.0,0.0,0.0,0.0,1677898991.468107,0.0
405,149.0,36682.65481980501,32705.38541142767,-72919.213523771,-65255.22503319086,5832.508901656735,-763.0215004708172,-84333.51180952929,187500.0,0.082,0.934,0.336,192.0,0.0,0.0,0.0,0.0,0.0,0.0,0.0,0.0,0.0,1677898991.470966,0.0
406,150.0,36540.83300123608,32572.928973785518,-72716.72907075037,-65124.400272893945,5965.144153254528,-1071.0285390649485,-82967.70846458775,187500.0,0.082,0.934,0.336,192.0,0.0,0.0,0.0,0.0,0.0,0.0,0.0,0.0,0.0,1677898991.474061,0.0
407,151.0,33409.957100147854,32480.459806973915,-72039.76178643249,-64523.09364355727,6598.346721928921,-901.8481852827293,-86269.48580378125,187500.0,0.082,0.934,0.336,192.0,0.0,0.0,0.0,0.0,0.0,0.0,0.0,0.0,0.0,1677898991.480024,0.0
408,152.0,33149.51457375462,32595.861863596663,-72157.95781111215,-64575.888463960706,6564.930863968238,-599.585545013612,-88006.95395552563,187500.0,0.082,0.934,0.336,192.0,0.0,0.0,0.0,0.0,0.0,0.0,0.0,0.0,0.0,1677898991.486086,0.0
409,153.0,36207.43438094072,32722.752716869443,-72869.1009127022,-65183.47593348932,5938.299708163704,-687.9419908454407,-84925.542464917,187500.0,0.082,0.934,0.336,192.0,0.0,0.0,0.0,0.0,0.0,0.0,0.0,0.0,0.0,1677898991.489022,0.0
410,154.0,36910.0614678933,32650.981265423452,-72832.75697621786,-65191.07552660412,5920.731237021832,-1003.4592155765553,-82669.42443483167,187500.0,0.082,0.934,0.336,192.0,0.0,0.0,0.0,0.0,0.0,0.0,0.0,0.0,0.0,1677898991.492086,0.0
411,155.0,33878.159091253176,32514.367403312615,-72140.0764155479,-64588.74071702251,6538.086418877414,-911.6829528430645,-85423.67344184798,187500.0,0.082,0.934,0.336,192.0,0.0,0.0,0.0,0.0,0.0,0.0,0.0,0.0,0.0,1677898991.495942,0.0
412,156.0,32879.50550073451,32611.373974248647,-72062.29234484343,-64467.54955858584,6646.447675996742,-584.6545797174668,-87833.19149413008,187500.0,0.056,0.934,0.326,192.0,1.0,192.0,29.0,48.0,10.0,48.0,0.0,0.0,0.0,1677898991.499015,0.0
413,157.0,35692.852520090644,32770.987781403994,-72734.83398375916,-65034.00981831668,6059.692032300477,-589.1919838418942,-85305.74563810178,187500.0,0.056,0.934,0.326,192.0,0.0,0.0,0.0,0.0,0.0,0.0,0.0,0.0,0.0,1677898991.502022,0.0
414,158.0,37199.181282422694,32734.33092049729,-72887.87637804466,-65209.00162565728,5864.226027038816,-913.9851825219611,-82253.6149327296,187500.0,0.056,0.934,0.326,192.0,0.0,0.0,0.0,0.0,0.0,0.0,0.0,0.0,0.0,1677898991.50704,0.0
415,159.0,34478.8398717451,32620.918169131062,-72158.80717740145,-64573.854455215274,6499.373197480822,-884.9949699634278,-84288.67421015195,187500.0,0.056,0.934,0.326,192.0,0.0,0.0,0.0,0.0,0.0,0.0,0.0,0.0,0.0,1677898991.511145,0.0
416,160.0,32789.42797057962,32688.576899597276,-71925.45496528804,-64310.41679506502,6762.028546575135,-530.29513720216,-87262.1938302748,187500.0,0.056,0.934,0.326,192.0,0.0,0.0,0.0,0.0,0.0,0.0,0.0,0.0,0.0,1677898991.515041,0.0
417,161.0,35172.50390917109,32836.61250312478,-72571.62154574652,-64834.81107173098,6232.6498308956425,-454.4556682653032,-85481.69857045395,187500.0,0.056,0.934,0.326,192.0,0.0,0.0,0.0,0.0,0.0,0.0,0.0,0.0,0.0,1677898991.519045,0.0
418,162.0,37361.41024367932,32831.181029222134,-72928.82477388678,-65169.57314843812,5878.195867323383,-790.0447595172834,-81907.14054192789,187500.0,0.056,0.934,0.326,192.0,0.0,0.0,0.0,0.0,0.0,0.0,0.0,0.0,0.0,1677898991.523153,0.0
419,163.0,35099.59251875788,32683.123073950184,-72311.96133040922,-64627.52099365247,6411.240269093546,-880.0328826943497,-83088.98903000225,187500.0,0.056,0.934,0.326,192.0,0.0,0.0,0.0,0.0,0.0,0.0,0.0,0.0,0.0,1677898991.527043,0.0
420,164.0,32805.92355798764,32731.156972784636,-71898.16348530812,-64190.23146512884,6838.158588189911,-488.6761890263783,-86467.11992825508,187500.0,0.056,0.934,0.326,192.0,0.0,0.0,0.0,0.0,0.0,0.0,0.0,0.0,0.0,1677898991.532046,0.0
421,165.0,34624.014451982315,32884.244070559034,-72448.68695124233,-64609.41608064367,6406.501699269021,-324.1002946019524,-85592.58557469673,187500.0,0.004,0.922,0.338,192.0,0.0,32.0,28.0,208.0,10.0,144.0,0.0,0.0,0.0,1677898991.53515,0.0
422,166.0,37353.65418835333,32911.2673296055,-72979.09384716676,-65086.24584510874,5910.494138061302,-631.0791529511396,-81754.50047904259,187500.0,0.004,0.922,0.338,192.0,0.0,0.0,0.0,0.0,0.0,0.0,0.0,0.0,0.0,1677898991.539066,0.0
423,167.0,35757.739634244404,32757.91201089764,-72467.03773344013,-64666.65889819371,6342.039268259915,-823.9970593448949,-81981.88477538642,187500.0,0.004,0.922,0.338,192.0,0.0,0.0,0.0,0.0,0.0,0.0,0.0,0.0,0.0,1677898991.543189,0.0
424,168.0,32995.756923646564,32765.95863890155,-71913.51913374891,-64132.04987431168,6874.50252467424,-498.555660075624,-85534.06870771274,187500.0,0.004,0.922,0.338,192.0,0.0,0.0,0.0,0.0,0.0,0.0,0.0,0.0,0.0,1677898991.547066,0.0
425,169.0,34113.254739434095,32908.5180650375,-72331.72027250771,-64444.594317030234,6553.911453951771,-290.8185471080002,-85601.86154864568,187500.0,0.004,0.922,0.338,192.0,0.0,0.0,0.0,0.0,0.0,0.0,0.0,0.0,0.0,1677898991.551069,0.0
426,170.0,37156.15417434623,32955.88141153829,-72976.00930643194,-65028.77951011414,5952.895397293019,-554.3679659805258,-81768.47031932716,187500.0,0.004,0.922,0.338,192.0,0.0,0.0,0.0,0.0,0.0,0.0,0.0,0.0,0.0,1677898991.555174,0.0
427,171.0,36348.98797857618,32802.54844457489,-72621.42123239294,-64771.33211747791,6231.129912272681,-825.025239589839,-81014.65773757194,187500.0,0.004,0.922,0.338,192.0,0.0,0.0,0.0,0.0,0.0,0.0,0.0,0.0,0.0,1677898991.558066,0.0
428,172.0,33304.83684597455,32745.90912412514,-71984.3965154167,-64191.84079072962,6827.697971784827,-562.4145939844364,-84487.8953084821,187500.0,0.004,0.922,0.338,192.0,0.0,0.0,0.0,0.0,0.0,0.0,0.0,0.0,0.0,1677898991.562114,0.0
429,173.0,33656.541544978805,32874.36459950979,-72249.55525989,-64371.63822312811,6661.423344781798,-311.94094561826535,-85482.63734372109,187500.0,0.004,0.922,0.338,192.0,0.0,0.0,0.0,0.0,0.0,0.0,0.0,0.0,0.0,1677898991.567037,0.0
430,174.0,36801.81196949625,32952.551001614454,-72974.15411164214,-65012.82036457305,6019.5706510032005,-505.90938400142005,-81903.0278209481,187500.0,0.004,0.922,0.338,192.0,0.0,0.0,0.0,0.0,0.0,0.0,0.0,0.0,0.0,1677898991.57108,0.0
431,175.0,36838.93821703651,32823.06734598486,-72793.17203678752,-64915.70203491474,6116.130187050127,-821.5383674548111,-80212.36422209314,187500.0,-0.042,0.9380000000000001,0.362,192.0,254.0,176.0,29.0,80.0,11.0,80.0,0.0,0.0,0.0,1677898991.575136,0.0
432,176.0,33717.45004861952,32745.082109580293,-72049.19422259262,-64267.948480599945,6791.264628322677,-639.0810774661395,-83399.99120235338,187500.0,-0.042,0.9380000000000001,0.362,192.0,0.0,0.0,0.0,0.0,0.0,0.0,0.0,0.0,0.0,1677898991.579108,0.0
433,177.0,33312.70466002281,32861.73586389254,-72107.97931051008,-64269.64721317855,6811.1800326323555,-313.5726229635028,-85262.98675095878,187500.0,-0.042,0.9380000000000001,0.362,192.0,0.0,0.0,0.0,0.0,0.0,0.0,0.0,0.0,0.0,1677898991.583086,0.0
434,178.0,36356.296999013066,32970.298286711964,-72852.60532529418,-64902.89448534185,6157.793838714819,-405.3488856969936,-82197.57910938014,187500.0,-0.042,0.9380000000000001,0.362,192.0,0.0,0.0,0.0,0.0,0.0,0.0,0.0,0.0,0.0,1677898991.588117,0.0
435,179.0,37220.54955012197,32870.833023885854,-72901.64505262913,-64984.925387492825,6056.4957328433675,-776.9689890109288,-79705.5607683135,187500.0,-0.042,0.9380000000000001,0.362,192.0,0.0,0.0,0.0,0.0,0.0,0.0,0.0,0.0,0.0,1677898991.59111,0.0
436,180.0,34179.08062685497,32750.915914883128,-72206.21522739115,-64358.51774913284,6693.073414930513,-711.1431015900495,-82363.18318404951,187500.0,-0.042,0.9380000000000001,0.362,192.0,0.0,0.0,0.0,0.0,0.0,0.0,0.0,0.0,0.0,1677898991.59616,0.0
437,181.0,32981.13888277279,32854.11391903328,-72128.63232238678,-64201.027357700754,6834.917585243891,-333.64448948436853,-84952.45396524119,187500.0,-0.042,0.9380000000000001,0.362,192.0,0.0,0.0,0.0,0.0,0.0,0.0,0.0,0.0,0.0,1677898991.600098,0.0
438,182.0,35714.041973834275,32979.23898449409,-72880.76852330787,-64805.954969639184,6205.023074748883,-346.6308530129019,-82548.38973860619,187500.0,-0.042,0.9380000000000001,0.362,192.0,0.0,0.0,0.0,0.0,0.0,0.0,0.0,0.0,0.0,1677898991.604119,0.0
439,183.0,37368.808671094026,32919.984509943075,-73155.44911091913,-65056.29450753862,5916.529109064235,-721.2684418283036,-79357.34294144428,187500.0,-0.042,0.9380000000000001,0.362,192.0,0.0,0.0,0.0,0.0,0.0,0.0,0.0,0.0,0.0,1677898991.607112,0.0
440,184.0,34674.23882177339,32788.4891973125,-72473.89971898792,-64448.55057579882,6526.217642571645,-756.6512533010547,-81282.78926405779,187500.0,-0.042,0.9380000000000001,0.362,192.0,0.0,0.0,0.0,0.0,0.0,0.0,0.0,0.0,0.0,1677898991.613108,0.0
441,185.0,32838.4006426812,32841.73105260504,-72206.77402100254,-64163.007040382276,6802.194631361322,-367.61914105643524,-84393.90622304752,187500.0,-0.116,0.886,0.378,192.0,252.0,96.0,27.0,176.0,11.0,208.0,0.0,0.0,0.0,1677898991.616081,0.0
442,186.0,35145.16772570225,32974.075731524914,-72843.12818564512,-64682.32747105688,6241.456418211033,-263.7058810837127,-82767.61564822384,187500.0,-0.116,0.886,0.378,192.0,0.0,0.0,0.0,0.0,0.0,0.0,0.0,0.0,0.0,1677898991.62013,0.0
443,187.0,37513.715030397776,32932.16621067122,-73253.52856558902,-65106.78709826316,5820.282497439683,-634.0519349636954,-79078.88490902007,187500.0,-0.116,0.886,0.378,192.0,0.0,0.0,0.0,0.0,0.0,0.0,0.0,0.0,0.0,1677898991.623094,0.0
444,188.0,35418.77542957967,32753.307551539845,-72633.20060172089,-64623.18475522814,6353.461009676577,-780.187640212493,-80104.11472369608,187500.0,-0.116,0.886,0.378,192.0,0.0,0.0,0.0,0.0,0.0,0.0,0.0,0.0,0.0,1677898991.627097,0.0
445,189.0,33031.81028745297,32766.3833220462,-72188.44559054919,-64222.350921911115,6793.388044045931,-455.3944415324261,-83610.03054499991,187500.0,-0.116,0.886,0.378,192.0,0.0,0.0,0.0,0.0,0.0,0.0,0.0,0.0,0.0,1677898991.631104,0.0
446,190.0,34690.4885399924,32907.31107083691,-72704.48031478886,-64663.75317141452,6394.141184585236,-300.69801815724594,-82973.29640070158,187500.0,-0.116,0.886,0.378,192.0,0.0,0.0,0.0,0.0,0.0,0.0,0.0,0.0,0.0,1677898991.634261,0.0
447,191.0,37404.102075588955,32909.52389353799,-73269.93474601922,-65221.02686417424,5857.744021146777,-630.0062692172849,-79128.46107822194,187500.0,-0.116,0.886,0.378,192.0,0.0,0.0,0.0,0.0,0.0,0.0,0.0,0.0,0.0,1677898991.638057,0.0
448,192.0,35801.28083244334,32772.21712734904,-72721.69115801944,-64826.384464071336,6304.667151530642,-846.0135276333723,-79264.3596845102,187500.0,-0.116,0.886,0.378,192.0,0.0,0.0,0.0,0.0,0.0,0.0,0.0,0.0,0.0,1677898991.642064,0.0
449,193.0,32853.51042193299,32762.71763595553,-72079.99492645204,-64286.56748373121,6905.482042489296,-540.9792710517968,-82988.04855204208,187500.0,-0.116,0.886,0.378,192.0,0.0,0.0,0.0,0.0,0.0,0.0,0.0,0.0,0.0,1677898991.646136,0.0
450,194.0,33795.70350595755,32900.538492266955,-72402.0388605641,-64578.95065295108,6659.232873825178,-304.2295937811844,-83399.92414712002,187500.0,-0.116,0.886,0.378,192.0,0.0,0.0,0.0,0.0,0.0,0.0,0.0,0.0,0.0,1677898991.651064,0.0
451,195.0,36915.20236911802,32957.11075748334,-73035.91198157215,-65185.04055560119,6056.272215398814,-545.6507856429561,-79714.9708527292,187500.0,-0.132,0.926,0.40800000000000003,192.0,251.0,224.0,28.0,240.0,12.0,192.0,0.0,0.0,0.0,1677898991.655131,0.0
452,196.0,36249.58977098343,32819.580473849834,-72694.93611990644,-64951.26366034313,6301.672017773631,-837.8998443960959,-78927.49654382427,187500.0,-0.132,0.926,0.40800000000000003,192.0,0.0,0.0,0.0,0.0,0.0,0.0,0.0,0.0,0.0,1677898991.659104,0.0
453,197.0,33108.20855000121,32799.307441628865,-71986.27406195093,-64313.85896371114,6954.499418079784,-575.6021232130674,-82561.64432306819,187500.0,-0.132,0.926,0.40800000000000003,192.0,0.0,0.0,0.0,0.0,0.0,0.0,0.0,0.0,0.0,1677898991.66228,0.0
454,198.0,33332.575360843584,32940.54811484196,-72209.81385824845,-64452.149206656126,6827.809730507104,-248.95372974321006,-83868.57317311445,187500.0,-0.132,0.926,0.40800000000000003,192.0,0.0,0.0,0.0,0.0,0.0,0.0,0.0,0.0,0.0,1677898991.66614,0.0
455,199.0,36561.620123579516,33029.105726373884,-72968.74498948395,-65104.060185439615,6159.581978271244,-396.4528914037814,-80423.96818685153,187500.0,-0.132,0.926,0.40800000000000003,192.0,0.0,0.0,0.0,0.0,0.0,0.0,0.0,0.0,0.0,1677898991.670171,0.0
456,200.0,36798.190986894486,32910.75323948303,-72849.52078455935,-65040.603582931,6215.70720859852,-743.7095932614319,-78578.4517024102,187500.0,-0.132,0.926,0.40800000000000003,192.0,0.0,0.0,0.0,0.0,0.0,0.0,0.0,0.0,0.0,1677898991.675256,0.0
457,201.0,33635.30738774627,32837.59597988081,-72097.92102550519,-64357.78014156582,6876.31301597512,-590.6671989759444,-81688.00403928805,187500.0,-0.132,0.926,0.40800000000000003,192.0,0.0,0.0,0.0,0.0,0.0,0.0,0.0,0.0,0.0,1677898991.679131,0.0
458,202.0,33080.000648498615,32957.580144116895,-72123.26790371751,-64315.49064105638,6891.1322225489885,-228.07720042195328,-83656.92450486714,187500.0,-0.132,0.926,0.40800000000000003,192.0,0.0,0.0,0.0,0.0,0.0,0.0,0.0,0.0,0.0,1677898991.683139,0.0
459,203.0,36182.82511029543,33069.160052437794,-72861.41191260958,-64937.94202064777,6214.388455675657,-257.8050205475117,-80598.40120058075,187500.0,-0.132,0.926,0.40800000000000003,192.0,0.0,0.0,0.0,0.0,0.0,0.0,0.0,0.0,0.0,1677898991.687224,0.0
460,204.0,37286.48719626513,32942.15744044274,-72966.35335282724,-65072.58892924654,6046.996241449862,-661.8798568105527,-77795.62655635197,187500.0,-0.132,0.926,0.40800000000000003,192.0,0.0,0.0,0.0,0.0,0.0,0.0,0.0,0.0,0.0,1677898991.691169,0.0
461,205.0,34257.602305126464,32805.83415100982,-72221.5485240875,-64424.187174342536,6698.214316155233,-656.2695689522707,-80219.22620764091,187500.0,-0.14,0.888,0.402,192.0,251.0,160.0,27.0,192.0,12.0,144.0,0.0,0.0,0.0,1677898991.697163,0.0
462,206.0,32896.917509665196,32896.38106779827,-72046.73553070254,-64221.94859051092,6891.26633301572,-284.5824104049695,-82852.48522192064,187500.0,-0.14,0.888,0.402,192.0,0.0,0.0,0.0,0.0,0.0,0.0,0.0,0.0,0.0,1677898991.701169,0.0
463,207.0,35602.104437602095,33010.12909533132,-72746.00985598682,-64815.78973719952,6268.054994112849,-261.9847967606541,-80497.5501295984,187500.0,-0.14,0.888,0.402,192.0,0.0,0.0,0.0,0.0,0.0,0.0,0.0,0.0,0.0,1677898991.704182,0.0
464,208.0,37428.845456700976,32923.06905067791,-73033.43093793762,-65121.2710286702,5945.474618133858,-673.0557290382063,-77085.82455942924,187500.0,-0.14,0.888,0.402,192.0,0.0,0.0,0.0,0.0,0.0,0.0,0.0,0.0,0.0,1677898991.708188,0.0
465,209.0,34784.05294228232,32772.55240351587,-72312.27425483159,-64528.480413971,6559.879369721338,-746.6823752739878,-78799.84573124001,187500.0,-0.14,0.888,0.402,192.0,0.0,0.0,0.0,0.0,0.0,0.0,0.0,0.0,0.0,1677898991.711185,0.0
466,210.0,32769.57962150331,32816.853561026284,-72008.2905302394,-64232.87859354956,6880.895123588458,-411.5179671666583,-82004.41533379738,187500.0,-0.14,0.888,0.402,192.0,0.0,0.0,0.0,0.0,0.0,0.0,0.0,0.0,0.0,1677898991.715225,0.0
467,211.0,34951.44515650811,32915.022422673996,-72698.19947459691,-64821.55648726899,6299.950933450572,-363.0817369320079,-80494.35383014129,187500.0,-0.14,0.888,0.402,192.0,0.0,0.0,0.0,0.0,0.0,0.0,0.0,0.0,0.0,1677898991.718223,0.0
468,212.0,37396.97186910771,32868.731959907054,-73182.11474205431,-65294.139420287545,5821.690657340367,-718.8768051715857,-76664.06949330206,187500.0,-0.14,0.888,0.402,192.0,0.0,0.0,0.0,0.0,0.0,0.0,0.0,0.0,0.0,1677898991.722182,0.0
469,213.0,35319.71249815375,32703.194940471047,-72564.9830776433,-64804.43505101622,6340.9440327816055,-893.4439293675339,-77476.33188680791,187500.0,-0.14,0.888,0.402,192.0,0.0,0.0,0.0,0.0,0.0,0.0,0.0,0.0,0.0,1677898991.726222,0.0
470,214.0,32759.38722603169,32708.626414373688,-72086.43222885516,-64361.44582765649,6801.837003450037,-573.4787074898134,-80993.20006289483,187500.0,-0.14,0.888,0.402,192.0,0.0,0.0,0.0,0.0,0.0,0.0,0.0,0.0,0.0,1677898991.730249,0.0
471,215.0,34322.847047191506,32836.41133742468,-72596.74490651429,-64788.00651884157,6378.047928577415,-404.87949906343215,-80453.38308255472,187500.0,-0.114,0.87,0.386,192.0,252.0,112.0,27.0,48.0,12.0,16.0,0.0,0.0,0.0,1677898991.735218,0.0
472,216.0,37251.93139933722,32846.089642773826,-73204.06415510943,-65364.256842643845,5790.666436036401,-706.3374765321585,-76503.69572683523,187500.0,-0.114,0.87,0.386,192.0,0.0,0.0,0.0,0.0,0.0,0.0,0.0,0.0,0.0,1677898991.739266,0.0
473,217.0,35937.00062477597,32663.565297551788,-72750.16728045551,-65029.62887640344,6138.88426290563,-982.4262240441113,-76338.15870739921,187500.0,-0.114,0.87,0.386,192.0,0.0,0.0,0.0,0.0,0.0,0.0,0.0,0.0,0.0,1677898991.743252,0.0
474,218.0,33015.471162256144,32645.192163609525,-72122.91027580622,-64458.43004684807,6730.646697359884,-693.5299269592675,-79979.54845184665,187500.0,-0.114,0.87,0.386,192.0,0.0,0.0,0.0,0.0,0.0,0.0,0.0,0.0,0.0,1677898991.746249,0.0
475,219.0,33878.96375405356,32774.92168842813,-72474.12323643247,-64737.06689322793,6483.816383339928,-425.9348423403314,-80464.96128618256,187500.0,-0.114,0.87,0.386,192.0,0.0,0.0,0.0,0.0,0.0,0.0,0.0,0.0,0.0,1677898991.750183,0.0
476,220.0,37061.51688832246,32817.05472672638,-73170.69300063765,-65380.86418877413,5818.0026195052415,-637.292937909715,-76675.62534518544,187500.0,-0.114,0.87,0.386,192.0,0.0,0.0,0.0,0.0,0.0,0.0,0.0,0.0,0.0,1677898991.754214,0.0
477,221.0,36568.61621959403,32648.880201444652,-72871.6043080812,-65195.88115166201,6012.552203244234,-989.9811136700051,-75545.99053215868,187500.0,-0.114,0.87,0.386,192.0,0.0,0.0,0.0,0.0,0.0,0.0,0.0,0.0,0.0,1677898991.760236,0.0
478,222.0,33403.43039076691,32599.862825854165,-72123.6255316288,-64536.325876274816,6671.7722024646055,-787.6531228605655,-79026.82769618365,187500.0,-0.114,0.87,0.386,192.0,0.0,0.0,0.0,0.0,0.0,0.0,0.0,0.0,0.0,1677898991.764234,0.0
479,223.0,33469.99388575481,32741.505830467446,-72257.803053594,-64619.83199355984,6588.556657857497,-450.47705775225853,-80416.41329722563,187500.0,-0.114,0.87,0.386,192.0,0.0,0.0,0.0,0.0,0.0,0.0,0.0,0.0,0.0,1677898991.767278,0.0
480,224.0,36663.81229922918,32818.68640407162,-73005.75947830194,-65283.87996958256,5885.59429473809,-578.6643122034445,-76954.19513633194,187500.0,-0.114,0.87,0.386,192.0,0.0,0.0,0.0,0.0,0.0,0.0,0.0,0.0,0.0,1677898991.771301,0.0
481,225.0,37027.29636756139,32710.973347541494,-72868.87739525764,-65224.089053164615,5934.231690672838,-956.8781801316953,-74873.51594847631,187500.0,-0.082,0.928,0.372,192.0,253.0,112.0,29.0,0.0,11.0,160.0,0.0,0.0,0.0,1677898991.77428,0.0
482,226.0,33806.58880550728,32651.964742179483,-72040.20882132159,-64487.66612859561,6667.614777995918,-818.4985302088893,-77903.78664777121,187500.0,-0.082,0.928,0.372,192.0,0.0,0.0,0.0,0.0,0.0,0.0,0.0,0.0,0.0,1677898991.778288,0.0
483,227.0,33048.1494126498,32768.19381334708,-72022.17096354616,-64408.943284624016,6724.90229903487,-458.6801479673562,-80071.03414190223,187500.0,-0.082,0.928,0.372,192.0,0.0,0.0,0.0,0.0,0.0,0.0,0.0,0.0,0.0,1677898991.782261,0.0
484,228.0,36081.348190468336,32847.274285229956,-72819.97177838943,-65091.02911842217,6030.81357846422,-522.7402475762663,-77142.79915604582,187500.0,-0.082,0.928,0.372,192.0,0.0,0.0,0.0,0.0,0.0,0.0,0.0,0.0,0.0,1677898991.786314,0.0
485,229.0,37332.084754953954,32764.170499345128,-72934.45741348951,-65240.227012661344,5892.702149474878,-927.3068222173241,-74226.36589126181,187500.0,-0.082,0.928,0.372,192.0,0.0,0.0,0.0,0.0,0.0,0.0,0.0,0.0,0.0,1677898991.793269,0.0
486,230.0,34353.603047562014,32665.46519583049,-72152.4816337206,-64564.66788824414,6595.239829449633,-894.8744410126735,-76595.33787910198,187500.0,-0.082,0.928,0.372,192.0,0.0,0.0,0.0,0.0,0.0,0.0,0.0,0.0,0.0,1677898991.797301,0.0
487,231.0,32879.773721667974,32756.57090623032,-71974.42763738963,-64365.0891620027,6820.724227514771,-511.7431893042552,-79390.24470928249,187500.0,-0.082,0.928,0.372,192.0,0.0,0.0,0.0,0.0,0.0,0.0,0.0,0.0,0.0,1677898991.800264,0.0
488,232.0,35544.95102702988,32890.65902121771,-72705.15086712252,-64983.38311712541,6197.55759210081,-443.1233338264625,-77165.0614935233,187500.0,-0.082,0.928,0.372,192.0,0.0,0.0,0.0,0.0,0.0,0.0,0.0,0.0,0.0,1677898991.803298,0.0
489,233.0,37558.41851930839,32834.131459490236,-73038.66124614015,-65328.76227244882,5834.229985979794,-833.4518472494898,-73552.59490640103,187500.0,-0.082,0.928,0.372,192.0,0.0,0.0,0.0,0.0,0.0,0.0,0.0,0.0,0.0,1677898991.807294,0.0
490,234.0,35017.941596262644,32702.814960815307,-72302.32772854897,-64719.45371859714,6457.664842327219,-915.9074325451176,-75010.68860419853,187500.0,-0.046,0.904,0.37,192.0,254.0,144.0,28.0,64.0,11.0,144.0,0.0,0.0,0.0,1677898991.810257,0.0
491,235.0,32854.69506438912,32767.746778457975,-71934.976808426,-64352.70629557447,6846.607547594017,-529.8928058019645,-78195.02987802385,187500.0,-0.046,0.904,0.37,192.0,0.0,0.0,0.0,0.0,0.0,0.0,0.0,0.0,0.0,1677898991.814323,0.0
492,236.0,34984.77160749097,32919.51512330951,-72571.80035970216,-64863.44365637823,6333.456198389077,-383.53358310861387,-76791.11680878601,187500.0,-0.046,0.904,0.37,192.0,0.0,0.0,0.0,0.0,0.0,0.0,0.0,0.0,0.0,1677898991.818323,0.0
493,237.0,37645.45621221736,32912.54137903945,-73106.96817719558,-65351.516348304314,5826.3398201870705,-719.770874949798,-72798.35764150115,187500.0,-0.046,0.904,0.37,192.0,0.0,0.0,0.0,0.0,0.0,0.0,0.0,0.0,0.0,1677898991.823324,0.0
494,238.0,35718.15469481405,32757.420272519623,-72521.35247246653,-64867.757543058106,6326.482454119022,-899.0318654813607,-73316.94046460874,187500.0,-0.046,0.904,0.37,192.0,0.0,0.0,0.0,0.0,0.0,0.0,0.0,0.0,0.0,1677898991.826325,0.0
495,239.0,33051.01043594008,32784.95762168856,-71997.78521034542,-64355.612022353656,6861.963196034813,-536.0171837827187,-76829.3382918046,187500.0,-0.046,0.904,0.37,192.0,0.0,0.0,0.0,0.0,0.0,0.0,0.0,0.0,0.0,1677898991.830316,0.0
496,240.0,34499.649345832986,32930.400422859246,-72487.33311740555,-64725.980427978095,6473.333415190389,-288.51631742910354,-76447.5928482524,187500.0,-0.046,0.904,0.37,192.0,0.0,0.0,0.0,0.0,0.0,0.0,0.0,0.0,0.0,1677898991.834294,0.0
497,241.0,37544.62749297947,32953.84740279286,-73128.7611280395,-65302.70013841393,5862.370832249026,-547.4165734549252,-72417.41686074935,187500.0,-0.046,0.904,0.37,192.0,0.0,0.0,0.0,0.0,0.0,0.0,0.0,0.0,0.0,1677898991.83832,0.0
498,242.0,36383.007333637164,32807.53288358842,-72643.59416289261,-64932.912878145326,6237.075476297793,-833.317736782758,-72023.98145484703,187500.0,-0.046,0.904,0.37,192.0,0.0,0.0,0.0,0.0,0.0,0.0,0.0,0.0,0.0,1677898991.842329,0.0
499,243.0,33363.51017516973,32793.04895318138,-71958.84847150427,-64310.48385029839,6872.021481039701,-546.2989862321599,-75648.29446653063,187500.0,-0.046,0.904,0.37,192.0,0.0,0.0,0.0,0.0,0.0,0.0,0.0,0.0,0.0,1677898991.846356,0.0
500,244.0,34090.120683922854,32932.970873471604,-72282.6134899394,-64548.70874270306,6640.591518949452,-260.7554508156122,-76304.2064075716,187500.0,-0.048,0.91,0.376,192.0,254.0,128.0,28.0,112.0,11.0,192.0,0.0,0.0,0.0,1677898991.852373,0.0
501,245.0,37347.48510688366,32984.69281014118,-73027.21715297904,-65219.84222171811,5961.791391586232,-470.7053864843114,-72520.43605094386,187500.0,-0.048,0.91,0.376,192.0,0.0,0.0,0.0,0.0,0.0,0.0,0.0,0.0,0.0,1677898991.855317,0.0
502,246.0,37007.783294651905,32834.22086646806,-72748.04386473226,-65053.03115284815,6158.352632326202,-839.6879839525204,-71205.34881417142,187500.0,-0.048,0.91,0.376,192.0,0.0,0.0,0.0,0.0,0.0,0.0,0.0,0.0,0.0,1677898991.859335,0.0
