sample,packet,eeg1,eeg2,eeg3,eeg4,eeg5,eeg6,eeg7,eeg8,accel1,accel2,accel3,other1,other2,other3,other4,other5,other6,other7,analog1,analog2,analog3,timestamp,marker
0,0.0,0.0,0.0,0.0,0.0,0.0,0.0,0.0,0.0,0.0,0.0,0.0,192.0,0.0,0.0,0.0,0.0,0.0,0.0,0.0,0.0,0.0,1676478079.281935,0.0
1,1.0,26312.987662909945,42923.19481649337,-37972.08225394276,-33476.07356024666,187500.0,9192.91486655651,-32150.570410558037,-11514.881135807174,-0.034,0.986,0.08,192.0,254.0,240.0,30.0,208.0,2.0,128.0,0.0,0.0,0.0,1676478079.353696,0.0
2,2.0,26221.23375192091,42858.12888838397,-38082.20929887406,-33522.07345033568,187500.0,9111.107481850086,-32558.467395122934,-11925.728550640173,-0.034,0.986,0.08,192.0,0.0,0.0,0.0,0.0,0.0,0.0,0.0,0.0,0.0,1676478079.353707,0.0
3,3.0,26169.936498395982,42814.453579718305,-38077.49308079399,-33496.63716514554,187500.0,9119.176461598452,-32738.890676366173,-12146.764951558704,-0.034,0.986,0.08,192.0,0.0,0.0,0.0,0.0,0.0,0.0,0.0,0.0,0.0,1676478079.353713,0.0
4,4.0,26232.38727240411,42850.21637084679,-37991.617678596696,-33472.45257764489,187500.0,9178.453287893926,-32399.278271112238,-11835.740427463106,-0.034,0.986,0.08,192.0,0.0,0.0,0.0,0.0,0.0,0.0,0.0,0.0,0.0,1676478079.35372,0.0
5,5.0,26307.15385760711,42911.5272058877,-37967.70131202952,-33476.67705734695,187500.0,9200.045073037752,-32133.73954698319,-11512.467147406,-0.034,0.986,0.08,192.0,0.0,0.0,0.0,0.0,0.0,0.0,0.0,0.0,0.0,1676478079.353726,0.0
6,6.0,26237.70698758447,42867.62837977748,-38077.895412194186,-33530.09772659513,187500.0,9124.89850817901,-32473.441359214947,-11837.126235619335,-0.034,0.986,0.08,192.0,0.0,0.0,0.0,0.0,0.0,0.0,0.0,0.0,0.0,1676478079.353732,0.0
7,7.0,26166.002591371845,42815.794684385626,-38107.91380499766,-33523.81688640319,187500.0,9100.80332765619,-32768.283220324905,-12171.843608837558,-0.034,0.986,0.08,192.0,0.0,0.0,0.0,0.0,0.0,0.0,0.0,0.0,0.0,1676478079.353742,0.0
8,8.0,26221.032586220812,42840.940396897844,-38016.0704870308,-33487.58470864114,187500.0,9167.389174388549,-32483.231423286372,-11923.515727939097,-0.026000000000000002,0.982,0.058,192.0,255.0,48.0,30.0,176.0,1.0,208.0,0.0,0.0,0.0,1676478079.353749,0.0
9,9.0,26307.287968073844,42905.98397326279,-37958.42533808057,-33475.44771140191,187500.0,9203.464889939414,-32134.253637105663,-11537.90343259614,-0.026000000000000002,0.982,0.058,192.0,0.0,0.0,0.0,0.0,0.0,0.0,0.0,0.0,0.0,1676478079.353755,0.0
10,10.0,26265.82548210925,42895.5233568577,-38046.71472867903,-33513.04334557573,187500.0,9135.739104239834,-32383.40853254897,-11743.31596414041,-0.026000000000000002,0.982,0.058,192.0,0.0,0.0,0.0,0.0,0.0,0.0,0.0,0.0,0.0,1676478079.353761,0.0
11,11.0,26168.505986750843,42821.11439956599,-38109.88075850973,-33527.10259283812,187500.0,9087.7946123832,-32768.39497904718,-12158.54432088665,-0.026000000000000002,0.982,0.058,192.0,0.0,0.0,0.0,0.0,0.0,0.0,0.0,0.0,0.0,1676478079.353767,0.0
12,12.0,26204.3358331127,42828.40106825842,-38028.34159473677,-33492.70325812141,187500.0,9136.297897851216,-32558.10976721165,-11989.162801404334,-0.026000000000000002,0.982,0.058,192.0,0.0,0.0,0.0,0.0,0.0,0.0,0.0,0.0,0.0,1676478079.353773,0.0
13,13.0,26302.661156971593,42897.24444118076,-37947.495335041924,-33473.659571845485,187500.0,9194.635950879569,-32155.845422249487,-11568.301805055358,-0.026000000000000002,0.982,0.058,192.0,0.0,0.0,0.0,0.0,0.0,0.0,0.0,0.0,0.0,1676478079.353779,0.0
14,14.0,26285.115037574178,42900.03840923768,-38021.121981277705,-33515.814961888194,187500.0,9146.512645067292,-32304.685688577378,-11657.373506709757,-0.026000000000000002,0.982,0.058,192.0,0.0,0.0,0.0,0.0,0.0,0.0,0.0,0.0,0.0,1676478079.353785,0.0
15,15.0,26174.764475198328,42811.12316979446,-38112.45120912209,-33547.50973552582,187500.0,9082.296083247194,-32751.698225939064,-12133.35390488552,-0.026000000000000002,0.982,0.058,192.0,0.0,0.0,0.0,0.0,0.0,0.0,0.0,0.0,0.0,1676478079.353791,0.0
16,16.0,26203.486466823397,42819.95210885431,-38038.06460357483,-33500.77223786977,187500.0,9131.492272793326,-32623.332157532237,-12047.05381954358,-0.026000000000000002,0.982,0.058,192.0,0.0,0.0,0.0,0.0,0.0,0.0,0.0,0.0,0.0,1676478079.411421,0.0
17,17.0,26302.035308126844,42889.44368236586,-37946.60126526371,-33465.9482200084,187500.0,9204.649532395546,-32198.537254159124,-11621.387198136712,-0.026000000000000002,0.982,0.058,192.0,0.0,0.0,0.0,0.0,0.0,0.0,0.0,0.0,0.0,1676478079.411434,0.0
18,18.0,26307.176209351568,42909.49319714227,-38006.10160900374,-33501.37573497006,187500.0,9172.95475875792,-32246.52644950467,-11593.402814078667,-0.014,0.984,0.044,192.0,255.0,144.0,30.0,192.0,1.0,96.0,0.0,0.0,0.0,1676478079.411441,0.0
19,19.0,26204.9840337019,42837.520579996184,-38098.01198220396,-33521.38054625756,187500.0,9107.061816103676,-32696.869396790196,-12071.618386699962,-0.014,0.984,0.044,192.0,0.0,0.0,0.0,0.0,0.0,0.0,0.0,0.0,0.0,1676478079.411447,0.0
20,20.0,26202.14536215608,42817.91810010888,-38046.26769378992,-33488.45642667489,187500.0,9136.81198797369,-32681.84902451623,-12096.786450956637,-0.014,0.984,0.044,192.0,0.0,0.0,0.0,0.0,0.0,0.0,0.0,0.0,0.0,1676478079.411453,0.0
21,21.0,26295.307433045797,42877.932533971376,-37943.114393128686,-33465.16590895247,187500.0,9201.162660260517,-32263.759644479713,-11696.243190317535,-0.014,0.984,0.044,192.0,0.0,0.0,0.0,0.0,0.0,0.0,0.0,0.0,0.0,1676478079.411459,0.0
22,22.0,26338.513355077906,42930.570892163625,-37958.38063459166,-33473.324295678656,187500.0,9205.16362251802,-32169.36822764495,-11530.393246459156,-0.014,0.984,0.044,192.0,0.0,0.0,0.0,0.0,0.0,0.0,0.0,0.0,0.0,1676478079.411472,0.0
23,23.0,26233.706025326974,42864.45443206483,-38076.621362760234,-33513.04334557573,187500.0,9130.017057659275,-32618.325366774247,-11994.169592162323,-0.014,0.984,0.044,192.0,0.0,0.0,0.0,0.0,0.0,0.0,0.0,0.0,0.0,1676478079.411478,0.0
24,24.0,26189.337812583188,42814.67709716286,-38064.953752154564,-33499.453484946906,187500.0,9143.115179910086,-32719.690527879065,-12131.141082184444,-0.014,0.984,0.044,192.0,0.0,0.0,0.0,0.0,0.0,0.0,0.0,0.0,0.0,1676478079.411484,0.0
25,25.0,26280.465874727473,42874.11038566952,-37957.82184098027,-33459.68973156092,187500.0,9209.902192342543,-32323.7293748533,-11762.94079577217,-0.014,0.984,0.044,192.0,0.0,0.0,0.0,0.0,0.0,0.0,0.0,0.0,0.0,1676478079.411491,0.0
26,26.0,26347.856384260227,42940.07038355713,-37944.41079430709,-33460.42733912794,187500.0,9214.596058678158,-32121.513142766136,-11489.333091894758,-0.014,0.984,0.044,192.0,0.0,0.0,0.0,0.0,0.0,0.0,0.0,0.0,0.0,1676478079.411497,0.0
27,27.0,26267.77008387686,42889.22016492131,-38057.44356601758,-33500.10168553611,187500.0,9135.359124584094,-32527.845505219164,-11895.01725375858,-0.006,0.992,0.038,192.0,255.0,208.0,31.0,0.0,1.0,48.0,0.0,0.0,0.0,1676478079.411503,0.0
28,28.0,26211.644853549584,42835.218350317286,-38063.6349992317,-33486.48947316283,187500.0,9137.974278685366,-32730.084089050782,-12139.567689844096,-0.006,0.992,0.038,192.0,0.0,0.0,0.0,0.0,0.0,0.0,0.0,0.0,0.0,1676478079.411509,0.0
29,29.0,26286.612604452683,42882.49228984026,-37955.36314909019,-33436.44391732739,187500.0,9202.660227139024,-32373.685523710912,-11821.077683100424,-0.006,0.992,0.038,192.0,0.0,0.0,0.0,0.0,0.0,0.0,0.0,0.0,0.0,1676478079.411515,0.0
30,30.0,26366.0730559913,42946.39592723798,-37922.17080857406,-33431.5935887806,187500.0,9230.286983285783,-32096.34507850946,-11486.69558604903,-0.006,0.992,0.038,192.0,0.0,0.0,0.0,0.0,0.0,0.0,0.0,0.0,0.0,1676478079.411521,0.0
31,31.0,26295.977985379457,42904.26288893973,-38039.40570824214,-33484.00842952829,187500.0,9157.599110317125,-32441.90304778851,-11808.29248527199,-0.006,0.992,0.038,192.0,0.0,0.0,0.0,0.0,0.0,0.0,0.0,0.0,0.0,1676478079.471842,0.0
32,32.0,26224.27358916683,42839.420478274886,-38072.374531313726,-33479.940412037424,187500.0,9142.779903743256,-32737.41546123212,-12142.205195689821,-0.006,0.992,0.038,192.0,0.0,0.0,0.0,0.0,0.0,0.0,0.0,0.0,0.0,1676478079.471855,0.0
33,33.0,26285.942052119026,42867.0695861661,-37972.05990219831,-33430.453649813375,187500.0,9213.634933666579,-32442.819469311176,-11889.921056022771,-0.006,0.992,0.038,192.0,0.0,0.0,0.0,0.0,0.0,0.0,0.0,0.0,0.0,1676478079.471862,0.0
34,34.0,26368.308230436833,42924.46886592732,-37925.81414292027,-33420.104792130565,187500.0,9244.010954381341,-32099.8766541334,-11504.487574635456,-0.006,0.992,0.038,192.0,0.0,0.0,0.0,0.0,0.0,0.0,0.0,0.0,0.0,1676478079.471868,0.0
35,35.0,26334.847668987237,42928.380421207,-38021.83723710028,-33460.00265598329,187500.0,9184.421203663493,-32342.281322751205,-11701.831126431362,-0.006,0.992,0.038,192.0,0.0,0.0,0.0,0.0,0.0,0.0,0.0,0.0,0.0,1676478079.471875,0.0
36,36.0,26244.703083598983,42852.65271099242,-38081.58345002931,-33467.13286246453,187500.0,9150.312441624696,-32718.394126700656,-12120.032265190157,-0.006,0.992,0.038,192.0,0.0,0.0,0.0,0.0,0.0,0.0,0.0,0.0,0.0,1676478079.471881,0.0
37,37.0,26279.907081116093,42859.38058607347,-38002.033591512874,-33427.860847456555,187500.0,9208.672846397501,-32523.44221156147,-11955.948109143748,-0.014,0.99,0.034,192.0,255.0,144.0,30.0,240.0,1.0,16.0,0.0,0.0,0.0,1676478079.471887,0.0
38,38.0,26372.06332350532,42920.44555192537,-37928.764573188375,-33417.33317581811,187500.0,9248.794227694778,-32127.324596324517,-11543.4243134766,-0.014,0.99,0.034,192.0,0.0,0.0,0.0,0.0,0.0,0.0,0.0,0.0,0.0,1676478079.471893,0.0
39,39.0,26362.63088734518,42932.73901137579,-37997.58559436627,-33453.83357451363,187500.0,9202.01202654982,-32254.841298442043,-11621.834233025818,-0.014,0.99,0.034,192.0,0.0,0.0,0.0,0.0,0.0,0.0,0.0,0.0,0.0,1676478079.471899,0.0
40,40.0,26249.084025512224,42852.65271099242,-38077.62719126072,-33470.57503111065,187500.0,9153.933424226454,-32668.639143543143,-12079.754421681693,-0.014,0.99,0.034,192.0,0.0,0.0,0.0,0.0,0.0,0.0,0.0,0.0,0.0,1676478079.471905,0.0
41,41.0,26248.458176667475,42811.5031494502,-38024.407687712635,-33444.06586218665,187500.0,9189.159773488018,-32571.386703418102,-12016.767205806638,-0.014,0.99,0.034,192.0,0.0,0.0,0.0,0.0,0.0,0.0,0.0,0.0,0.0,1676478079.471911,0.0
42,42.0,26354.472500618995,42905.35812441804,-37924.80831441979,-33409.21949258083,187500.0,9261.624129012123,-32145.675378522323,-11585.400889563667,-0.014,0.99,0.034,192.0,0.0,0.0,0.0,0.0,0.0,0.0,0.0,0.0,0.0,1676478079.471918,0.0
43,43.0,26375.281974706886,42940.89739810197,-37962.49335557143,-33427.793792223194,187500.0,9241.462855513437,-32158.147651928386,-11530.61676390371,-0.014,0.99,0.034,192.0,0.0,0.0,0.0,0.0,0.0,0.0,0.0,0.0,0.0,1676478079.47193,0.0
44,44.0,26264.216156508468,42848.94232141284,-38077.78365347191,-33478.73341783684,187500.0,9147.138493912042,-32629.590645979722,-12029.172423979333,-0.014,0.99,0.034,192.0,0.0,0.0,0.0,0.0,0.0,0.0,0.0,0.0,0.0,1676478079.471936,0.0
45,45.0,26247.854679567183,42818.58865244254,-38041.21619954303,-33450.301998889685,187500.0,9176.687500081956,-32634.88800941563,-12076.468715246763,-0.014,0.99,0.034,192.0,0.0,0.0,0.0,0.0,0.0,0.0,0.0,0.0,0.0,1676478079.471942,0.0
46,46.0,26338.40159635563,42873.931571713874,-37922.21551206297,-33416.70732697336,187500.0,9244.078009614708,-32213.155295032895,-11679.92641686516,-0.014,0.99,0.034,192.0,0.0,0.0,0.0,0.0,0.0,0.0,0.0,0.0,0.0,1676478079.532699,0.0
47,47.0,26377.494797407962,42909.29203144217,-37937.36999480367,-33438.366167350556,187500.0,9234.690276943478,-32128.97862541421,-11510.61195261621,-0.024,0.988,0.054,192.0,255.0,64.0,30.0,224.0,1.0,176.0,0.0,0.0,0.0,1676478079.532711,0.0
48,48.0,26283.997450351413,42856.58661801656,-38066.60778124425,-33476.185318968935,187500.0,9160.95187198542,-32576.438197665,-11969.493266283664,-0.024,0.988,0.054,192.0,0.0,0.0,0.0,0.0,0.0,0.0,0.0,0.0,0.0,1676478079.532718,0.0
49,49.0,26250.492185412906,42811.39139072793,-38051.810926414844,-33449.34087387811,187500.0,9163.835247020155,-32663.65470452961,-12112.477375564264,-0.024,0.988,0.054,192.0,0.0,0.0,0.0,0.0,0.0,0.0,0.0,0.0,0.0,1676478079.532725,0.0
50,50.0,26338.73687252246,42865.14733614294,-37944.634311751644,-33415.790905450696,187500.0,9223.804977393744,-32277.841243486553,-11760.70562132664,-0.024,0.988,0.054,192.0,0.0,0.0,0.0,0.0,0.0,0.0,0.0,0.0,0.0,1676478079.532731,0.0
51,51.0,26404.451001221063,42918.65741236894,-37930.61976797817,-33423.36814682104,187500.0,9248.30248931676,-32074.127444520887,-11487.343786638236,-0.024,0.988,0.054,192.0,0.0,0.0,0.0,0.0,0.0,0.0,0.0,0.0,0.0,1676478079.532737,0.0
52,52.0,26308.87494193017,42853.79264995964,-38059.634036974196,-33482.01912427177,187500.0,9179.48146813887,-32466.08763528915,-11883.796678042017,-0.024,0.988,0.054,192.0,0.0,0.0,0.0,0.0,0.0,0.0,0.0,0.0,0.0,1676478079.532743,0.0
53,53.0,26237.505821884373,42783.697579347805,-38080.599973273274,-33473.07842648964,187500.0,9160.728354540868,-32668.70619877651,-12149.35775391552,-0.024,0.988,0.054,192.0,0.0,0.0,0.0,0.0,0.0,0.0,0.0,0.0,0.0,1676478079.532749,0.0
54,54.0,26311.646558242628,42822.38844899994,-37980.95589649152,-33443.08238543062,187500.0,9207.53290743028,-32346.93048559791,-11856.326384106444,-0.024,0.988,0.054,192.0,0.0,0.0,0.0,0.0,0.0,0.0,0.0,0.0,0.0,1676478079.532755,0.0
55,55.0,26392.47046619302,42875.65265603694,-37938.353471559705,-33444.937580220416,187500.0,9233.595041465169,-32067.041941528554,-11507.885039792662,-0.024,0.988,0.054,192.0,0.0,0.0,0.0,0.0,0.0,0.0,0.0,0.0,0.0,1676478079.532761,0.0
56,56.0,26330.22085788499,42846.126001611476,-38044.256036788945,-33487.45059817441,187500.0,9175.43580239246,-32362.73316892781,-11799.038863067492,-0.024,0.988,0.054,192.0,0.0,0.0,0.0,0.0,0.0,0.0,0.0,0.0,0.0,1676478079.532768,0.0
57,57.0,26249.084025512224,42776.38855891092,-38084.62328727523,-33480.2533364598,187500.0,9164.818723776189,-32640.16302110708,-12154.02926850668,-0.028,0.984,0.048,192.0,255.0,32.0,30.0,192.0,1.0,128.0,0.0,0.0,0.0,1676478079.532774,0.0
58,58.0,26293.4075347671,42792.83944283002,-38003.017068268906,-33447.88801048851,187500.0,9227.582422206691,-32369.393988775493,-11922.442844205243,-0.028,0.984,0.048,192.0,0.0,0.0,0.0,0.0,0.0,0.0,0.0,0.0,0.0,1676478079.53278,0.0
59,59.0,26384.312079466832,42860.162897129405,-37938.30876807079,-33439.90843771797,187500.0,9261.646480756579,-32023.81366775199,-11530.437949948067,-0.028,0.984,0.048,192.0,0.0,0.0,0.0,0.0,0.0,0.0,0.0,0.0,0.0,1676478079.532787,0.0
60,60.0,26351.231497672976,42852.74211797024,-38028.386298225676,-33473.12312997856,187500.0,9187.639854865058,-32252.539068763148,-11716.046835904937,-0.028,0.984,0.048,192.0,0.0,0.0,0.0,0.0,0.0,0.0,0.0,0.0,0.0,1676478079.532793,0.0
61,61.0,26250.58159239073,42777.3496839225,-38094.48040658002,-33487.87528131906,187500.0,9136.18613912894,-32622.30397728729,-12156.711477841316,-0.028,0.984,0.048,192.0,0.0,0.0,0.0,0.0,0.0,0.0,0.0,0.0,0.0,1676478079.600235,0.0
62,62.0,26281.2034822945,42779.338989179014,-38017.344536464756,-33459.37680713854,187500.0,9186.075232753186,-32426.525047603256,-12007.178307435312,-0.028,0.984,0.048,192.0,0.0,0.0,0.0,0.0,0.0,0.0,0.0,0.0,0.0,1676478079.600248,0.0
63,63.0,26379.282936964388,42845.29898706663,-37937.63821573713,-33436.130992905026,187500.0,9241.686372957989,-32038.834040025955,-11581.355223817256,-0.028,0.984,0.048,192.0,0.0,0.0,0.0,0.0,0.0,0.0,0.0,0.0,0.0,1676478079.600256,0.0
64,64.0,26369.716390337515,42853.613836004,-38013.29887071835,-33472.45257764489,187500.0,9201.229715493884,-32160.51693684065,-11636.273459943946,-0.028,0.984,0.048,192.0,0.0,0.0,0.0,0.0,0.0,0.0,0.0,0.0,0.0,1676478079.600269,0.0
65,65.0,26248.704045856484,42753.835648755514,-38111.35597364378,-33504.86260710509,187500.0,9143.182235143451,-32575.141796486594,-12114.399625587419,-0.028,0.984,0.048,192.0,0.0,0.0,0.0,0.0,0.0,0.0,0.0,0.0,0.0,1676478079.600275,0.0
66,66.0,26263.366790219163,42755.46732610075,-38047.407632757146,-33474.12895847904,187500.0,9183.14715422954,-32471.496757447334,-12058.587319682518,-0.028,0.984,0.048,192.0,0.0,0.0,0.0,0.0,0.0,0.0,0.0,0.0,0.0,1676478079.600282,1.0
67,67.0,26374.41025667313,42851.87039993649,-37946.60126526371,-33425.71507998885,187500.0,9239.250032812362,-32069.366522951907,-11634.530023876432,-0.028,0.982,0.048,192.0,255.0,32.0,30.0,176.0,1.0,128.0,0.0,0.0,0.0,1676478079.600288,1.0
68,68.0,26371.1245502382,42863.9179901979,-38015.08701027477,-33471.64791484451,187500.0,9197.385215447572,-32097.194444798763,-11578.069517382326,-0.028,0.982,0.048,192.0,0.0,0.0,0.0,0.0,0.0,0.0,0.0,0.0,0.0,1676478079.600294,1.0
69,69.0,26265.534909431328,42788.52555615015,-38125.66109009518,-33511.79164788624,187500.0,9118.304743564695,-32524.649205762056,-12068.57854945404,-0.028,0.982,0.048,192.0,0.0,0.0,0.0,0.0,0.0,0.0,0.0,0.0,0.0,1676478079.6003,1.0
70,70.0,26246.737092344418,42743.620901539434,-38082.29870585188,-33477.19114746942,187500.0,9140.388267086539,-32516.46846729141,-12120.2110791458,-0.028,0.982,0.048,192.0,0.0,0.0,0.0,0.0,0.0,0.0,0.0,0.0,0.0,1676478079.600306,1.0
71,71.0,26335.92055272109,42796.01339054268,-37980.084178457764,-33449.743205278304,187500.0,9202.05673003873,-32125.022366645622,-11727.133301154769,-0.028,0.982,0.048,192.0,0.0,0.0,0.0,0.0,0.0,0.0,0.0,0.0,0.0,1676478079.600312,1.0
72,72.0,26396.94081508408,42854.84318194904,-37979.27951565737,-33449.609094811574,187500.0,9220.519270958814,-32000.74666747411,-11510.164917727103,-0.028,0.982,0.048,192.0,0.0,0.0,0.0,0.0,0.0,0.0,0.0,0.0,0.0,1676478079.600318,1.0
73,73.0,26297.63201446915,42791.878317818446,-38101.45415085008,-33490.378676698056,187500.0,9147.406714845505,-32416.332652131638,-11956.104571354936,-0.028,0.982,0.048,192.0,0.0,0.0,0.0,0.0,0.0,0.0,0.0,0.0,0.0,1676478079.600324,1.0
74,74.0,26249.709874356973,42741.49748581618,-38097.63200254822,-33476.00650501329,187500.0,9162.315328397195,-32531.44413607647,-12132.616297318495,-0.028,0.982,0.048,192.0,0.0,0.0,0.0,0.0,0.0,0.0,0.0,0.0,0.0,1676478079.60033,1.0
75,75.0,26340.59206731225,42788.45850091678,-37990.790664051856,-33443.26119938627,187500.0,9216.697122656957,-32150.704521024767,-11773.781391832996,-0.028,0.982,0.048,192.0,0.0,0.0,0.0,0.0,0.0,0.0,0.0,0.0,0.0,1676478079.600336,1.0
76,76.0,26402.75226864246,42843.55555099912,-37985.538004104856,-33458.88506876052,187500.0,9222.776797148801,-31944.196754002187,-11494.362234397202,-0.028,0.982,0.048,192.0,0.0,0.0,0.0,0.0,0.0,0.0,0.0,0.0,0.0,1676478079.653209,1.0
77,77.0,26315.334596077755,42788.77142533915,-38107.39971487519,-33506.29311875023,187500.0,9144.836264233145,-32317.29207245017,-11888.088212977436,-0.024,0.978,0.058,192.0,255.0,64.0,30.0,144.0,1.0,208.0,0.0,0.0,0.0,1676478079.653221,0.0
78,78.0,26253.397912192097,42732.60149152297,-38114.75343880099,-33486.33301095164,187500.0,9149.418371846483,-32507.952452653943,-12158.879597053481,-0.024,0.978,0.058,192.0,0.0,0.0,0.0,0.0,0.0,0.0,0.0,0.0,0.0,1676478079.653227,0.0
79,79.0,26311.19952335352,42752.67335804384,-38018.14919926515,-33457.07457745964,187500.0,9204.403663206538,-32177.392503904404,-11857.622785284851,-0.024,0.978,0.058,192.0,0.0,0.0,0.0,0.0,0.0,0.0,0.0,0.0,0.0,1676478079.653234,0.0
80,80.0,26402.46169596454,42833.56432122759,-37971.03172195336,-33448.17858316643,187500.0,9243.653326470057,-31892.743038266068,-11493.043481474338,-0.024,0.978,0.058,192.0,0.0,0.0,0.0,0.0,0.0,0.0,0.0,0.0,0.0,1676478079.65324,0.0
81,81.0,26350.762111039414,42819.415666987385,-38068.44062428959,-33487.27178421876,187500.0,9187.326930442683,-32189.060114510074,-11772.842618565872,-0.024,0.978,0.058,192.0,0.0,0.0,0.0,0.0,0.0,0.0,0.0,0.0,0.0,1676478079.653246,0.0
82,82.0,26253.397912192097,42739.59758753748,-38116.474523124045,-33491.98800229884,187500.0,9147.987860201343,-32494.00496411383,-12149.558919615618,-0.024,0.978,0.058,192.0,0.0,0.0,0.0,0.0,0.0,0.0,0.0,0.0,0.0,1676478079.653252,0.0
83,83.0,26288.512502731384,42744.76084050666,-38036.835257629784,-33466.97640025335,187500.0,9198.39104394806,-32244.648902970424,-11930.243603020144,-0.024,0.978,0.058,192.0,0.0,0.0,0.0,0.0,0.0,0.0,0.0,0.0,0.0,1676478079.653258,0.0
84,84.0,26416.409184504653,42847.7129754678,-37950.49046879893,-33427.1902951229,187500.0,9255.276233586817,-31876.135692135776,-11505.359292669213,-0.024,0.978,0.058,192.0,0.0,0.0,0.0,0.0,0.0,0.0,0.0,0.0,0.0,1676478079.653264,0.0
85,85.0,26385.586128900784,42837.721745696275,-38038.13165880819,-33472.02789450024,187500.0,9187.8186688207,-32081.39176146886,-11670.806905127396,-0.024,0.978,0.058,192.0,0.0,0.0,0.0,0.0,0.0,0.0,0.0,0.0,0.0,1676478079.653271,0.0
86,86.0,26270.429941467042,42751.44401209879,-38123.40356390519,-33505.35434548311,187500.0,9129.547671025715,-32465.931173077963,-12134.002105474723,-0.024,0.978,0.058,192.0,0.0,0.0,0.0,0.0,0.0,0.0,0.0,0.0,0.0,1676478079.653285,0.0
87,87.0,26300.53774124834,42761.70346280378,-38039.226894286505,-33463.89185951852,187500.0,9184.979997274875,-32281.216356899306,-11995.175420662812,-0.018000000000000002,0.972,0.052000000000000005,192.0,255.0,112.0,30.0,96.0,1.0,160.0,0.0,0.0,0.0,1676478079.653291,0.0
88,88.0,26405.41212623264,42837.609986974,-37947.495335041924,-33433.582894037114,187500.0,9258.718402232935,-31885.63518352928,-11554.756647915441,-0.018000000000000002,0.972,0.052000000000000005,192.0,0.0,0.0,0.0,0.0,0.0,0.0,0.0,0.0,0.0,1676478079.653297,0.0
89,89.0,26400.45003896356,42853.613836004,-38009.83435032777,-33466.90934501998,187500.0,9226.308372772739,-31987.514434756573,-11588.798354720873,-0.018000000000000002,0.972,0.052000000000000005,192.0,0.0,0.0,0.0,0.0,0.0,0.0,0.0,0.0,0.0,1676478079.653303,0.0
90,90.0,26279.929432860547,42758.305997646574,-38122.33068017133,-33510.20467402991,187500.0,9154.134589926553,-32409.381259606038,-12082.213113571777,-0.018000000000000002,0.972,0.052000000000000005,192.0,0.0,0.0,0.0,0.0,0.0,0.0,0.0,0.0,0.0,1676478079.653309,0.0
91,91.0,26290.591214965727,42752.7404132772,-38073.08978713629,-33477.19114746942,187500.0,9182.051918751231,-32324.91401730943,-12047.634964899418,-0.018000000000000002,0.972,0.052000000000000005,192.0,0.0,0.0,0.0,0.0,0.0,0.0,0.0,0.0,0.0,1676478079.711409,0.0
92,92.0,26386.010812045435,42823.550739711616,-37979.458329613015,-33444.53524882022,187500.0,9251.990527151887,-31924.773088070524,-11619.241430669003,-0.018000000000000002,0.972,0.052000000000000005,192.0,0.0,0.0,0.0,0.0,0.0,0.0,0.0,0.0,0.0,1676478079.711422,0.0
93,93.0,26401.254701763955,42839.10755385251,-38023.223045256505,-33486.98121154084,187500.0,9232.075122842209,-31918.782820556502,-11534.260098249924,-0.018000000000000002,0.972,0.052000000000000005,192.0,0.0,0.0,0.0,0.0,0.0,0.0,0.0,0.0,0.0,1676478079.711428,0.0
94,94.0,26314.038194899345,42785.08338750403,-38112.495912611,-33492.56914765467,187500.0,9159.275491151273,-32329.272607478215,-12008.050025469069,-0.018000000000000002,0.972,0.052000000000000005,192.0,0.0,0.0,0.0,0.0,0.0,0.0,0.0,0.0,0.0,1676478079.711435,0.0
95,95.0,26292.178188822054,42752.785116766114,-38079.79531047289,-33450.1455366785,187500.0,9192.020796778297,-32349.031549576706,-12075.887569890925,-0.018000000000000002,0.972,0.052000000000000005,192.0,0.0,0.0,0.0,0.0,0.0,0.0,0.0,0.0,0.0,1676478079.711441,0.0
96,96.0,26377.785370085883,42801.176643511855,-37989.717780317995,-33428.79962072368,187500.0,9254.471570786425,-31970.169481059253,-11689.045928602925,-0.02,0.992,0.05,192.0,255.0,96.0,31.0,0.0,1.0,144.0,0.0,0.0,0.0,1676478079.711448,0.0
97,97.0,26427.94268464359,42848.74115571275,-37996.95974552152,-33446.07751918763,187500.0,9250.7835329513,-31851.369959279295,-11489.601312828221,-0.02,0.992,0.05,192.0,0.0,0.0,0.0,0.0,0.0,0.0,0.0,0.0,0.0,1676478079.711454,0.0
98,98.0,26319.469668801987,42778.020236256154,-38113.054706222385,-33485.684810362436,187500.0,9171.09956396813,-32260.7645107227,-11931.383541987365,-0.02,0.992,0.05,192.0,0.0,0.0,0.0,0.0,0.0,0.0,0.0,0.0,0.0,1676478079.71146,0.0
99,99.0,26262.71858962996,42711.56849999053,-38122.71065982708,-33478.86752830357,187500.0,9172.798296546734,-32395.322012343648,-12117.528869811162,-0.02,0.992,0.05,192.0,0.0,0.0,0.0,0.0,0.0,0.0,0.0,0.0,0.0,1676478079.711466,0.0
100,100.0,26358.54051810986,42768.99013149621,-38011.220158484,-33437.18152489442,187500.0,9248.101323616664,-32026.451173597718,-11757.911653269728,-0.02,0.992,0.05,192.0,0.0,0.0,0.0,0.0,0.0,0.0,0.0,0.0,0.0,1676478079.711472,0.0
101,101.0,26443.23127785102,42842.50501900972,-37977.7148935455,-33425.37980382202,187500.0,9286.054585701775,-31788.516853870973,-11438.862852914674,-0.02,0.992,0.05,192.0,0.0,0.0,0.0,0.0,0.0,0.0,0.0,0.0,0.0,1676478079.711478,0.0
102,102.0,26359.83691928827,42795.4545969313,-38095.12860716922,-33478.420493414465,187500.0,9198.525154414792,-32148.335236112507,-11810.639418439796,-0.02,0.992,0.05,192.0,0.0,0.0,0.0,0.0,0.0,0.0,0.0,0.0,0.0,1676478079.711484,0.0
103,103.0,26286.411438752588,42734.92607294632,-38119.93904351462,-33474.285420690234,187500.0,9184.957645530421,-32377.373561546035,-12106.844735961526,-0.02,0.992,0.05,192.0,0.0,0.0,0.0,0.0,0.0,0.0,0.0,0.0,0.0,1676478079.71149,0.0
104,104.0,26356.864137275716,42771.82880304204,-38013.3212224628,-33435.12516440453,187500.0,9256.170303365028,-32056.11193848991,-11811.846412640383,-0.02,0.992,0.05,192.0,0.0,0.0,0.0,0.0,0.0,0.0,0.0,0.0,0.0,1676478079.711497,0.0
105,105.0,26451.56847853285,42848.74115571275,-37955.18433513455,-33421.87057994254,187500.0,9297.968065496452,-31758.520812811952,-11442.662649472077,-0.02,0.992,0.05,192.0,0.0,0.0,0.0,0.0,0.0,0.0,0.0,0.0,0.0,1676478079.711503,0.0
106,106.0,26392.962204571035,42824.645975189924,-38059.72344395202,-33470.642086344014,187500.0,9227.850643140155,-32051.641589598847,-11723.847594719839,-0.01,0.976,0.052000000000000005,192.0,255.0,176.0,30.0,128.0,1.0,160.0,0.0,0.0,0.0,1676478079.77295,0.0
107,107.0,26307.422078540574,42762.03873897061,-38107.958508486576,-33473.793682312215,187500.0,9192.132555500575,-32366.085930596106,-12120.009913445701,-0.01,0.976,0.052000000000000005,192.0,0.0,0.0,0.0,0.0,0.0,0.0,0.0,0.0,0.0,1676478079.772971,0.0
108,108.0,26353.869003518703,42775.8968205329,-38018.84210334326,-33442.836516241616,187500.0,9258.003146410365,-32122.25075033316,-11911.490489422142,-0.01,0.976,0.052000000000000005,192.0,0.0,0.0,0.0,0.0,0.0,0.0,0.0,0.0,0.0,1676478079.772979,0.0
109,109.0,26454.96594369006,42860.05113840713,-37940.18631460504,-33424.55278927717,187500.0,9306.014693500363,-31767.19328966061,-11493.825792530275,-0.01,0.976,0.052000000000000005,192.0,0.0,0.0,0.0,0.0,0.0,0.0,0.0,0.0,0.0,1676478079.772985,0.0
110,110.0,26419.493725239485,42855.58078951607,-38033.99658608396,-33473.25724044529,187500.0,9234.086779843186,-31973.745760172103,-11652.791399096419,-0.01,0.976,0.052000000000000005,192.0,0.0,0.0,0.0,0.0,0.0,0.0,0.0,0.0,0.0,1676478079.772992,0.0
111,111.0,26305.991566895435,42767.961951251265,-38120.07315398135,-33496.83833084564,187500.0,9174.251159936328,-32367.471738752338,-12114.712550009794,-0.01,0.976,0.052000000000000005,192.0,0.0,0.0,0.0,0.0,0.0,0.0,0.0,0.0,0.0,1676478079.772998,0.0
112,112.0,26329.17032589559,42768.67720707384,-38041.462068732035,-33458.7956617827,187500.0,9225.816634394721,-32198.6490128814,-11984.93832170228,-0.01,0.976,0.052000000000000005,192.0,0.0,0.0,0.0,0.0,0.0,0.0,0.0,0.0,0.0,1676478079.773005,0.0
113,113.0,26424.455812508564,42838.995795130235,-37951.67511125506,-33430.40894632446,187500.0,9290.703748548478,-31809.706307614604,-11554.220206048514,-0.01,0.976,0.052000000000000005,192.0,0.0,0.0,0.0,0.0,0.0,0.0,0.0,0.0,0.0,1676478079.773011,0.0
114,114.0,26418.89022813919,42850.88692318046,-38017.903330076144,-33468.94335376541,187500.0,9256.907910932054,-31908.970404740623,-11584.752688974464,-0.01,0.976,0.052000000000000005,192.0,0.0,0.0,0.0,0.0,0.0,0.0,0.0,0.0,0.0,1676478079.773018,0.0
115,115.0,26299.241340069933,42762.79869828209,-38124.94583427261,-33503.38739197104,187500.0,9183.236561207363,-32339.375595972015,-12078.279206547644,-0.01,0.976,0.052000000000000005,192.0,0.0,0.0,0.0,0.0,0.0,0.0,0.0,0.0,0.0,1676478079.773024,0.0
116,116.0,26289.49597948742,42735.28370085761,-38075.95081042657,-33477.928755036446,187500.0,9206.817651607711,-32275.82958648558,-12053.446418457797,-0.008,0.964,0.054,192.0,255.0,192.0,30.0,32.0,1.0,176.0,0.0,0.0,0.0,1676478079.77303,0.0
117,117.0,26389.94471906957,42804.171777268864,-37968.84125099674,-33445.22815289833,187500.0,9269.000204682376,-31876.918003191713,-11635.938183777116,-0.008,0.964,0.054,192.0,0.0,0.0,0.0,0.0,0.0,0.0,0.0,0.0,0.0,1676478079.773037,0.0
118,118.0,26419.113745583745,42845.05311787762,-38000.17839672308,-33467.04345548671,187500.0,9255.231530097906,-31854.320389547396,-11530.169729014604,-0.008,0.964,0.054,192.0,0.0,0.0,0.0,0.0,0.0,0.0,0.0,0.0,0.0,1676478079.773043,0.0
119,119.0,26307.891465174136,42770.398291396894,-38117.27918592444,-33503.27563324876,187500.0,9172.172447701985,-32285.932574979375,-12012.028635982113,-0.008,0.964,0.054,192.0,0.0,0.0,0.0,0.0,0.0,0.0,0.0,0.0,0.0,1676478079.77305,0.0
120,120.0,26281.762275905883,42733.763782234644,-38086.612592531754,-33478.91223179248,187500.0,9189.405642677028,-32315.235711960282,-12092.87489567696,-0.008,0.964,0.054,192.0,0.0,0.0,0.0,0.0,0.0,0.0,0.0,0.0,0.0,1676478079.773056,0.0
121,121.0,26377.092466007765,42794.314657964074,-37976.88787900065,-33442.21066739687,187500.0,9263.322861590726,-31919.22985544561,-11690.163515825692,-0.008,0.964,0.054,192.0,0.0,0.0,0.0,0.0,0.0,0.0,0.0,0.0,0.0,1676478079.836726,0.0
122,122.0,26423.807611919357,42846.99771964523,-37987.281440172366,-33457.45455711539,187500.0,9267.21206512595,-31796.0046882635,-11477.441963844534,-0.008,0.964,0.054,192.0,0.0,0.0,0.0,0.0,0.0,0.0,0.0,0.0,0.0,1676478079.836927,0.0
123,123.0,26321.034290913856,42778.60138161199,-38104.493988096,-33500.79458961423,187500.0,9188.556276387724,-32209.646071153413,-11918.88891683685,-0.008,0.964,0.054,192.0,0.0,0.0,0.0,0.0,0.0,0.0,0.0,0.0,0.0,1676478079.836947,0.0
124,124.0,26269.49116819992,42729.06991589903,-38094.92744146913,-33483.11435975008,187500.0,9190.813802577712,-32348.9868460878,-12114.77960524316,-0.008,0.964,0.054,192.0,0.0,0.0,0.0,0.0,0.0,0.0,0.0,0.0,0.0,1676478079.836965,0.0
125,125.0,26351.678532562084,42775.852117043985,-37982.78873953685,-33448.558562822174,187500.0,9264.194579624484,-31987.67089696776,-11770.428630164699,-0.008,0.964,0.054,192.0,0.0,0.0,0.0,0.0,0.0,0.0,0.0,0.0,0.0,1676478079.836982,0.0
126,126.0,26421.21480956254,42833.56432122759,-37954.46907931198,-33448.625618055536,187500.0,9284.378204867626,-31764.108748925777,-11464.366193338179,-0.02,0.974,0.052000000000000005,192.0,255.0,96.0,30.0,112.0,1.0,160.0,0.0,0.0,0.0,1676478079.836999,0.0
127,127.0,26335.853497487726,42783.42935841434,-38072.19571735808,-33495.98896455634,187500.0,9197.385215447572,-32132.823125460523,-11831.426540783232,-0.02,0.974,0.052000000000000005,192.0,0.0,0.0,0.0,0.0,0.0,0.0,0.0,0.0,0.0,1676478079.837016,0.0
128,128.0,26262.025685551846,42719.05633438305,-38102.5940898173,-33494.692563377925,187500.0,9175.793430303745,-32388.862358196064,-12137.556032843118,-0.02,0.974,0.052000000000000005,192.0,0.0,0.0,0.0,0.0,0.0,0.0,0.0,0.0,0.0,1676478079.837048,0.0
129,129.0,26324.38705258215,42749.74527952019,-38006.72745784849,-33460.42733912794,187500.0,9235.919622888521,-32096.16626455382,-11863.501294076597,-0.02,0.974,0.052000000000000005,192.0,0.0,0.0,0.0,0.0,0.0,0.0,0.0,0.0,0.0,1676478079.837065,0.0
130,130.0,26413.123478069723,42825.38358275695,-37947.785907719845,-33448.692673288904,187500.0,9281.584236810713,-31784.33707765783,-11490.51773435089,-0.02,0.974,0.052000000000000005,192.0,0.0,0.0,0.0,0.0,0.0,0.0,0.0,0.0,0.0,1676478079.837096,0.0
131,131.0,26360.082788477277,42811.9054808504,-38048.86049614674,-33495.0054878003,187500.0,9224.54258496077,-32066.14787175034,-11746.109932197325,-0.02,0.974,0.052000000000000005,192.0,0.0,0.0,0.0,0.0,0.0,0.0,0.0,0.0,0.0,1676478079.837114,0.0
132,132.0,26271.59223217872,42744.87259922893,-38096.17913915862,-33494.78197035575,187500.0,9179.615578605602,-32393.17624487594,-12131.655172306917,-0.02,0.974,0.052000000000000005,192.0,0.0,0.0,0.0,0.0,0.0,0.0,0.0,0.0,0.0,1676478079.837131,0.0
133,133.0,26308.249093085422,42750.639349298406,-38011.957766051026,-33461.32140890615,187500.0,9217.993523835365,-32164.60730607597,-11932.74699839914,-0.02,0.974,0.052000000000000005,192.0,0.0,0.0,0.0,0.0,0.0,0.0,0.0,0.0,0.0,1676478079.837148,0.0
134,134.0,26403.623986676215,42818.499245464714,-37937.146477359114,-33440.869562729546,187500.0,9274.968120451942,-31800.13976098773,-11512.623609617187,-0.02,0.974,0.052000000000000005,192.0,0.0,0.0,0.0,0.0,0.0,0.0,0.0,0.0,0.0,1676478079.837165,0.0
135,135.0,26379.394695686664,42821.04734433262,-38014.3717544522,-33473.27959218974,187500.0,9226.330724517195,-31971.08590258192,-11640.117959990259,-0.02,0.974,0.052000000000000005,192.0,0.0,0.0,0.0,0.0,0.0,0.0,0.0,0.0,0.0,1676478079.837182,0.0
136,136.0,26277.78366539284,42750.192314409294,-38087.68547626561,-33486.08714176263,187500.0,9179.816744305701,-32367.69525619689,-12098.865163190982,-0.024,0.986,0.042,192.0,255.0,64.0,30.0,208.0,1.0,80.0,0.0,0.0,0.0,1676478079.893687,0.0
137,137.0,26289.473627742962,42744.62673003993,-38014.21529224102,-33453.453594857885,187500.0,9225.660172183534,-32221.783068392644,-11990.123926415912,-0.024,0.986,0.042,192.0,0.0,0.0,0.0,0.0,0.0,0.0,0.0,0.0,0.0,1676478079.893704,0.0
138,138.0,26384.1779690001,42811.0561145611,-37918.281605038836,-33427.637330012,187500.0,9282.612417055658,-31820.837476353347,-11564.077325353304,-0.024,0.986,0.042,192.0,0.0,0.0,0.0,0.0,0.0,0.0,0.0,0.0,0.0,1676478079.893714,0.0
139,139.0,26395.040916805377,42839.64399571944,-37972.50693708741,-33456.40402512599,187500.0,9247.900157916565,-31891.670154532214,-11570.201703334058,-0.024,0.986,0.042,192.0,0.0,0.0,0.0,0.0,0.0,0.0,0.0,0.0,0.0,1676478079.893723,0.0
140,140.0,26292.692278944527,42766.218515183755,-38069.96054291255,-33484.075484761655,187500.0,9176.709851826412,-32337.16277327094,-12066.075154075046,-0.024,0.986,0.042,192.0,0.0,0.0,0.0,0.0,0.0,0.0,0.0,0.0,0.0,1676478079.893731,0.0
141,141.0,26294.0557353563,42752.159267921365,-38012.80713234033,-33449.76555702276,187500.0,9219.982829091887,-32281.998667955242,-12051.47946494573,-0.024,0.986,0.042,192.0,0.0,0.0,0.0,0.0,0.0,0.0,0.0,0.0,0.0,1676478079.893749,0.0
142,142.0,26400.22652151901,42827.462294991295,-37902.344811242205,-33407.40900127995,187500.0,9299.487984119414,-31857.69550296015,-11623.801186537885,-0.024,0.986,0.042,192.0,0.0,0.0,0.0,0.0,0.0,0.0,0.0,0.0,0.0,1676478079.893757,0.0
143,143.0,26432.74830970148,42871.65169377944,-37931.02209937836,-33421.04356539769,187500.0,9287.485097346915,-31812.43322043815,-11499.167859455092,-0.024,0.986,0.042,192.0,0.0,0.0,0.0,0.0,0.0,0.0,0.0,0.0,0.0,1676478079.893766,0.0
144,144.0,26323.001244425923,42798.36032371048,-38045.77595541191,-33461.500222861796,187500.0,9202.570820161203,-32249.700397217322,-11977.897522198858,-0.024,0.986,0.042,192.0,0.0,0.0,0.0,0.0,0.0,0.0,0.0,0.0,0.0,1676478079.893775,0.0
145,145.0,26288.847778898216,42759.021253469145,-38020.74200162196,-33441.69657727439,187500.0,9217.948820346453,-32301.087057720073,-12083.688328705828,-0.024,0.986,0.042,192.0,0.0,0.0,0.0,0.0,0.0,0.0,0.0,0.0,0.0,1676478079.893783,0.0
146,146.0,26389.18475975809,42823.57309145607,-37904.31176475427,-33396.72486743032,187500.0,9300.270295175349,-31899.22504415811,-11691.862248404295,-0.022,0.986,0.046,192.0,255.0,80.0,30.0,208.0,1.0,112.0,0.0,0.0,0.0,1676478079.893792,0.0
147,147.0,26454.47420531204,42891.54474634466,-37886.43036919003,-33394.19912030687,187500.0,9314.262487204373,-31736.43728929011,-11448.921137919562,-0.022,0.986,0.046,192.0,0.0,0.0,0.0,0.0,0.0,0.0,0.0,0.0,0.0,1676478079.893801,0.0
148,148.0,26352.662009318115,42828.04344034713,-38004.91696654761,-33447.41862385495,187500.0,9228.901175129555,-32157.857079250465,-11886.121259465368,-0.022,0.986,0.046,192.0,0.0,0.0,0.0,0.0,0.0,0.0,0.0,0.0,0.0,1676478079.893809,0.0
149,149.0,26310.931302420056,42776.38855891092,-38007.01803052641,-33431.213609124854,187500.0,9232.857433898143,-32329.473773178313,-12102.217924859277,-0.022,0.986,0.046,192.0,0.0,0.0,0.0,0.0,0.0,0.0,0.0,0.0,0.0,1676478079.893818,0.0
150,150.0,26389.16240801363,42820.15327455441,-37900.19904377449,-33398.04362035318,187500.0,9290.904914248576,-31974.930402628233,-11766.56177837393,-0.022,0.986,0.046,192.0,0.0,0.0,0.0,0.0,0.0,0.0,0.0,0.0,0.0,1676478079.893836,0.0
151,151.0,26450.339132587807,42882.80521426263,-37869.264229448345,-33404.14564658948,187500.0,9322.264411719372,-31733.15158285518,-11449.926966420051,-0.022,0.986,0.046,192.0,0.0,0.0,0.0,0.0,0.0,0.0,0.0,0.0,0.0,1676478079.956073,0.0
152,152.0,26371.54923338285,42842.57207424308,-37985.38154189367,-33452.93950473541,187500.0,9243.563919492235,-32101.48597973418,-11810.080624828413,-0.022,0.986,0.046,192.0,0.0,0.0,0.0,0.0,0.0,0.0,0.0,0.0,0.0,1676478079.95609,0.0
153,153.0,26291.664098699584,42768.83366928502,-38021.412553955626,-33449.98907446731,187500.0,9219.8263668807,-32369.841023664598,-12134.762064786204,-0.022,0.986,0.046,192.0,0.0,0.0,0.0,0.0,0.0,0.0,0.0,0.0,0.0,1676478079.956099,0.0
154,154.0,26347.856384260227,42805.44582670282,-37917.991032360915,-33411.32055655963,187500.0,9277.158591408563,-32066.371389194894,-11867.636366800829,-0.022,0.986,0.046,192.0,0.0,0.0,0.0,0.0,0.0,0.0,0.0,0.0,0.0,1676478079.956108,0.0
155,155.0,26439.31972257134,42875.540897314655,-37859.20594444346,-33401.46343725484,187500.0,9320.140995996118,-31740.929989925626,-11482.024071457872,-0.022,0.986,0.046,192.0,0.0,0.0,0.0,0.0,0.0,0.0,0.0,0.0,0.0,1676478079.956117,0.0
156,156.0,26384.803817844848,42852.16097261441,-37960.459346826,-33444.155269164476,187500.0,9240.904061902054,-32019.29861537202,-11722.730007497074,-0.022,0.982,0.042,192.0,255.0,80.0,30.0,176.0,1.0,80.0,0.0,0.0,0.0,1676478079.956126,0.0
157,157.0,26279.035363082334,42767.246695428694,-38016.20459749753,-33452.17954542393,187500.0,9201.855564338633,-32383.45323603788,-12129.844681006036,-0.022,0.982,0.042,192.0,0.0,0.0,0.0,0.0,0.0,0.0,0.0,0.0,0.0,1676478079.956135,0.0
158,158.0,26309.947825664025,42774.265143187666,-37936.453573281,-33424.642196254994,187500.0,9266.653271514568,-32160.360474629462,-11942.112379325912,-0.022,0.982,0.042,192.0,0.0,0.0,0.0,0.0,0.0,0.0,0.0,0.0,0.0,1676478079.956143,0.0
159,159.0,26404.763925643438,42845.18722834435,-37864.50330787937,-33413.0863443716,187500.0,9302.661931832068,-31782.705400312592,-11530.415598203612,-0.022,0.982,0.042,192.0,0.0,0.0,0.0,0.0,0.0,0.0,0.0,0.0,0.0,1676478079.956152,0.0
160,160.0,26386.9272335681,42851.60217900303,-37946.93654143054,-33450.48081284533,187500.0,9244.614451481635,-31967.33080951343,-11653.93133806364,-0.022,0.982,0.042,192.0,0.0,0.0,0.0,0.0,0.0,0.0,0.0,0.0,0.0,1676478079.95616,0.0
161,161.0,26281.337592761232,42770.063015230066,-38033.48249596149,-33471.849080544605,187500.0,9188.82449732119,-32402.251053124794,-12122.647419291428,-0.022,0.982,0.042,192.0,0.0,0.0,0.0,0.0,0.0,0.0,0.0,0.0,0.0,1676478079.956169,0.0
162,162.0,26291.217063810476,42761.03291047012,-37974.496242343936,-33444.0435104422,187500.0,9247.900157916565,-32279.830548743077,-12021.773996564627,-0.022,0.982,0.042,192.0,0.0,0.0,0.0,0.0,0.0,0.0,0.0,0.0,0.0,1676478079.956178,0.0
163,163.0,26379.908785809137,42825.227120545766,-37888.50908142437,-33424.55278927717,187500.0,9316.050626760796,-31876.850947958344,-11599.482488570511,-0.022,0.982,0.042,192.0,0.0,0.0,0.0,0.0,0.0,0.0,0.0,0.0,0.0,1676478079.956187,0.0
164,164.0,26383.954451555546,42849.1658388574,-37934.46426802448,-33447.41862385495,187500.0,9254.940957419987,-31935.054890519965,-11575.275549325414,-0.022,0.982,0.042,192.0,0.0,0.0,0.0,0.0,0.0,0.0,0.0,0.0,0.0,1676478079.956195,0.0
165,165.0,26266.47368269845,42764.60918958297,-38037.95284485255,-33486.176548740455,187500.0,9169.423183133982,-32404.5979862926,-12069.986709354724,-0.02,0.98,0.05,192.0,255.0,96.0,30.0,160.0,1.0,144.0,0.0,0.0,0.0,1676478079.956204,0.0
166,166.0,26262.360961718674,42744.7384887622,-37988.555489606326,-33458.95212399389,187500.0,9195.8205933357,-32387.700067484388,-12088.62806423045,-0.02,0.98,0.05,192.0,0.0,0.0,0.0,0.0,0.0,0.0,0.0,0.0,0.0,1676478080.011784,0.0
167,167.0,26363.346143167753,42809.692658149324,-37888.576136657735,-33432.487658558806,187500.0,9266.630919770112,-31967.777844402535,-11675.813695885385,-0.02,0.98,0.05,192.0,0.0,0.0,0.0,0.0,0.0,0.0,0.0,0.0,0.0,1676478080.0118,0.0
168,168.0,26401.053536063857,42856.81013546111,-37912.67131718055,-33449.117356433555,187500.0,9271.257730872361,-31907.495189606572,-11532.583717415777,-0.02,0.98,0.05,192.0,0.0,0.0,0.0,0.0,0.0,0.0,0.0,0.0,0.0,1676478080.01181,0.0
169,169.0,26289.831255654248,42786.22332647125,-38026.88873134717,-33489.75282785331,187500.0,9186.209343219918,-32381.575689503636,-12007.781804535605,-0.02,0.98,0.05,192.0,0.0,0.0,0.0,0.0,0.0,0.0,0.0,0.0,0.0,1676478080.011819,0.0
170,170.0,26247.206478977976,42743.86677072845,-38010.080219516785,-33473.167833467465,187500.0,9189.360939188116,-32479.006943584318,-12132.683352551861,-0.02,0.98,0.05,192.0,0.0,0.0,0.0,0.0,0.0,0.0,0.0,0.0,0.0,1676478080.011827,0.0
171,171.0,26334.244171886945,42798.18150975484,-37907.48571246692,-33439.416699339956,187500.0,9260.573597022725,-32073.34513346495,-11748.792141531962,-0.02,0.98,0.05,192.0,0.0,0.0,0.0,0.0,0.0,0.0,0.0,0.0,0.0,1676478080.011844,0.0
172,172.0,26386.32373646781,42851.82569644758,-37912.894834625105,-33450.659626800974,187500.0,9271.503600061369,-31894.06179118893,-11494.876324519673,-0.02,0.98,0.05,192.0,0.0,0.0,0.0,0.0,0.0,0.0,0.0,0.0,0.0,1676478080.011853,0.0
173,173.0,26291.77585742186,42794.605230641995,-38036.52233320741,-33499.2076157579,187500.0,9179.727337327879,-32331.44072669038,-11924.230983761667,-0.02,0.98,0.05,192.0,0.0,0.0,0.0,0.0,0.0,0.0,0.0,0.0,0.0,1676478080.011861,0.0
174,174.0,26223.96066474446,42728.01938390963,-38050.559228725346,-33493.1055895216,187500.0,9167.903264511022,-32538.462583835437,-12167.97675704679,-0.02,0.98,0.05,192.0,0.0,0.0,0.0,0.0,0.0,0.0,0.0,0.0,0.0,1676478080.01187,0.0
175,175.0,26299.48720925894,42772.767576309154,-37952.122146144175,-33453.47594660234,187500.0,9235.182015321496,-32176.297268426097,-11839.227299598135,-0.018000000000000002,0.982,0.044,192.0,255.0,112.0,30.0,176.0,1.0,96.0,0.0,0.0,0.0,1676478080.011878,0.0
176,176.0,26387.240157990476,42851.57982725857,-37916.0017271044,-33442.03185344122,187500.0,9268.776687237822,-31897.481608090595,-11502.542972867845,-0.018000000000000002,0.982,0.044,192.0,0.0,0.0,0.0,0.0,0.0,0.0,0.0,0.0,0.0,1676478080.011887,0.0
177,177.0,26314.909912933104,42815.25824251869,-38022.373678967204,-33487.87528131906,187500.0,9193.63012237908,-32249.8121559396,-11843.96586942266,-0.018000000000000002,0.982,0.044,192.0,0.0,0.0,0.0,0.0,0.0,0.0,0.0,0.0,0.0,1676478080.011896,0.0
178,178.0,26229.05686248027,42740.98339569371,-38059.566981740834,-33493.73143836635,187500.0,9168.506761611314,-32551.225429919417,-12186.752222389248,-0.018000000000000002,0.982,0.044,192.0,0.0,0.0,0.0,0.0,0.0,0.0,0.0,0.0,0.0,1676478080.011904,0.0
179,179.0,26283.77393290686,42767.87254427344,-37973.06573069879,-33460.36028389457,187500.0,9230.689314685978,-32254.48367053076,-11925.192108773244,-0.018000000000000002,0.982,0.044,192.0,0.0,0.0,0.0,0.0,0.0,0.0,0.0,0.0,0.0,1676478080.011913,0.0
180,180.0,26375.41608517362,42848.7635074572,-37917.83457014973,-33443.305902875174,187500.0,9269.290777360295,-31901.616680814826,-11527.822795846796,-0.018000000000000002,0.982,0.044,192.0,0.0,0.0,0.0,0.0,0.0,0.0,0.0,0.0,0.0,1676478080.011921,0.0
181,181.0,26328.74564275094,42836.49239975124,-38017.29983297585,-33484.88014756205,187500.0,9200.290942226762,-32168.429454377827,-11752.591938089365,-0.018000000000000002,0.982,0.044,192.0,0.0,0.0,0.0,0.0,0.0,0.0,0.0,0.0,0.0,1676478080.073545,0.0
182,182.0,26225.972321745438,42759.08830870251,-38078.61066801676,-33492.83736858814,187500.0,9157.755572528313,-32552.05244446426,-12172.178885004389,-0.018000000000000002,0.982,0.044,192.0,0.0,0.0,0.0,0.0,0.0,0.0,0.0,0.0,0.0,1676478080.073567,0.0
183,183.0,26258.337647716722,42764.83270702752,-38000.625431612185,-33459.24269667181,187500.0,9221.770968648312,-32332.558313913145,-11990.749775260661,-0.018000000000000002,0.982,0.044,192.0,0.0,0.0,0.0,0.0,0.0,0.0,0.0,0.0,0.0,1676478080.07358,0.0
184,184.0,26359.881622777182,42837.922911396374,-37924.003651619394,-33439.32729236213,187500.0,9269.961329693953,-31928.394070672286,-11560.858674151741,-0.018000000000000002,0.982,0.044,192.0,0.0,0.0,0.0,0.0,0.0,0.0,0.0,0.0,0.0,1676478080.073592,0.0
185,185.0,26342.246096401945,42844.5613794996,-38005.20753922553,-33475.693580590916,187500.0,9221.480395970393,-32093.88638661938,-11661.754448622996,-0.02,0.984,0.036000000000000004,192.0,255.0,96.0,30.0,192.0,1.0,32.0,0.0,0.0,0.0,1676478080.073604,0.0
186,186.0,26237.23760095091,42765.302093661085,-38093.139301912706,-33498.67117389097,187500.0,9158.694345795435,-32540.92127572552,-12141.981678245269,-0.02,0.984,0.036000000000000004,192.0,0.0,0.0,0.0,0.0,0.0,0.0,0.0,0.0,0.0,1676478080.073615,1.0
187,187.0,26238.064615495758,42753.88035224442,-38029.95092033755,-33470.083292732634,187500.0,9199.8215555932,-32419.66306205548,-12061.470694717253,-0.02,0.984,0.036000000000000004,192.0,0.0,0.0,0.0,0.0,0.0,0.0,0.0,0.0,0.0,1676478080.073627,1.0
188,188.0,26335.004131198424,42819.43801873184,-37933.659605224086,-33443.97645520884,187500.0,9266.899140703576,-31986.396847533808,-11625.388160394212,-0.02,0.984,0.036000000000000004,192.0,0.0,0.0,0.0,0.0,0.0,0.0,0.0,0.0,0.0,1676478080.073638,1.0
189,189.0,26353.73489305197,42856.251341849726,-37977.58078307877,-33466.08233047513,187500.0,9246.894329416076,-32021.422031095273,-11586.585532019799,-0.02,0.984,0.036000000000000004,192.0,0.0,0.0,0.0,0.0,0.0,0.0,0.0,0.0,0.0,1676478080.07365,1.0
190,190.0,26244.72543534344,42784.122262492456,-38074.76616797044,-33490.982173798344,187500.0,9165.511627854303,-32487.008868099318,-12081.855485660493,-0.02,0.984,0.036000000000000004,192.0,0.0,0.0,0.0,0.0,0.0,0.0,0.0,0.0,0.0,1676478080.073661,1.0
191,191.0,26237.461118395462,42757.00959646817,-38025.21235051303,-33459.48856586082,187500.0,9184.935293785966,-32468.94865857943,-12105.593038272029,-0.02,0.984,0.036000000000000004,192.0,0.0,0.0,0.0,0.0,0.0,0.0,0.0,0.0,0.0,1676478080.073673,1.0
192,192.0,26336.814622499303,42817.739286153235,-37923.44485800801,-33429.98426317981,187500.0,9252.97400390792,-32035.950664991222,-11687.347196024322,-0.02,0.984,0.036000000000000004,192.0,0.0,0.0,0.0,0.0,0.0,0.0,0.0,0.0,0.0,1676478080.073695,1.0
193,193.0,26375.997230529458,42865.706129754326,-37942.667358239574,-33442.23301914132,187500.0,9252.437562040992,-31950.23172500512,-11524.268868478403,-0.02,0.984,0.036000000000000004,192.0,0.0,0.0,0.0,0.0,0.0,0.0,0.0,0.0,0.0,1676478080.073707,1.0
194,194.0,26277.58249969274,42803.85885284649,-38048.54757172437,-33472.34081892262,187500.0,9180.375537917083,-32408.956576461387,-11997.209429408245,-0.02,0.984,0.036000000000000004,192.0,0.0,0.0,0.0,0.0,0.0,0.0,0.0,0.0,0.0,1676478080.073719,1.0
195,195.0,26243.697255098494,42769.10189021849,-38022.865417345216,-33443.26119938627,187500.0,9201.162660260517,-32503.370345040603,-12131.811634518104,-0.022,0.992,0.036000000000000004,192.0,255.0,80.0,31.0,0.0,1.0,32.0,0.0,0.0,0.0,1676478080.07373,1.0
196,196.0,26328.74564275094,42821.27086177717,-37919.15332307259,-33408.012498380245,187500.0,9272.732946006412,-32095.96509885372,-11752.36842064481,-0.022,0.992,0.036000000000000004,192.0,0.0,0.0,0.0,0.0,0.0,0.0,0.0,0.0,0.0,1676478080.133773,1.0
197,197.0,26393.051611548857,42878.49132758276,-37914.61591894817,-33416.32734731762,187500.0,9291.016672970853,-31902.08606744839,-11488.930760494562,-0.022,0.992,0.036000000000000004,192.0,0.0,0.0,0.0,0.0,0.0,0.0,0.0,0.0,0.0,1676478080.133795,0.0
198,198.0,26310.01488089739,42830.77035317068,-38026.95578658054,-33455.688769303415,187500.0,9202.906096328032,-32320.331909696095,-11906.886030064348,-0.022,0.992,0.036000000000000004,192.0,0.0,0.0,0.0,0.0,0.0,0.0,0.0,0.0,0.0,1676478080.133808,0.0
199,199.0,26247.47469991144,42772.65581758688,-38032.923702350105,-33441.629522041025,187500.0,9202.570820161203,-32527.91256045253,-12146.921413769891,-0.022,0.992,0.036000000000000004,192.0,0.0,0.0,0.0,0.0,0.0,0.0,0.0,0.0,0.0,1676478080.13382,0.0
200,200.0,26320.408442069107,42818.25337627571,-37927.82579992125,-33404.21270182284,187500.0,9272.040041928298,-32166.820128777046,-11821.658828456262,-0.022,0.992,0.036000000000000004,192.0,0.0,0.0,0.0,0.0,0.0,0.0,0.0,0.0,0.0,1676478080.133831,0.0
201,201.0,26409.435440234596,42902.00536274974,-37884.8433953337,-33389.192329548874,187500.0,9297.11869920715,-31870.21247985512,-11470.334109107747,-0.022,0.992,0.036000000000000004,192.0,0.0,0.0,0.0,0.0,0.0,0.0,0.0,0.0,0.0,1676478080.133843,0.0
202,202.0,26343.095462691246,42867.80719373312,-37996.37860016568,-33434.164039392956,187500.0,9222.866204126622,-32223.593559693523,-11798.971807834127,-0.022,0.992,0.036000000000000004,192.0,0.0,0.0,0.0,0.0,0.0,0.0,0.0,0.0,0.0,1676478080.133854,0.0
203,203.0,26264.260859997376,42803.836501102036,-38032.521370949915,-33430.65481551347,187500.0,9203.643703895057,-32533.05346167725,-12147.144931214445,-0.022,0.992,0.036000000000000004,192.0,0.0,0.0,0.0,0.0,0.0,0.0,0.0,0.0,0.0,1676478080.133866,0.0
204,204.0,26324.767032237894,42828.3116612806,-37932.76553544588,-33391.583966205595,187500.0,9266.005070925365,-32238.8598011565,-11888.82582054446,-0.022,0.992,0.036000000000000004,192.0,0.0,0.0,0.0,0.0,0.0,0.0,0.0,0.0,0.0,1676478080.133877,0.0
205,205.0,26412.475277480517,42900.217223193315,-37875.23214521792,-33382.88913761248,187500.0,9316.56471688327,-31880.31546834892,-11485.153315681615,-0.02,0.986,0.038,192.0,255.0,96.0,30.0,208.0,1.0,48.0,0.0,0.0,0.0,1676478080.133889,0.0
206,206.0,26372.666820605617,42893.4222928789,-37966.583724806755,-33422.9881671653,187500.0,9257.310242332249,-32126.98932015769,-11690.945826881627,-0.02,0.986,0.038,192.0,0.0,0.0,0.0,0.0,0.0,0.0,0.0,0.0,0.0,1676478080.1339,0.0
207,207.0,26275.324973502753,42818.45454197581,-38029.74975463745,-33432.66647251445,187500.0,9199.888610826565,-32520.111801637628,-12127.073064693579,-0.02,0.986,0.038,192.0,0.0,0.0,0.0,0.0,0.0,0.0,0.0,0.0,0.0,1676478080.133912,0.0
208,208.0,26311.646558242628,42832.08910609354,-37944.36609081818,-33391.00282084976,187500.0,9257.556111521259,-32310.8771217915,-11954.919928898804,-0.02,0.986,0.038,192.0,0.0,0.0,0.0,0.0,0.0,0.0,0.0,0.0,0.0,1676478080.133923,0.0
209,209.0,26406.306196010853,42902.96648776132,-37868.68308409251,-33370.57332641761,187500.0,9316.899993050098,-31901.169645925722,-11523.821833589296,-0.02,0.986,0.038,192.0,0.0,0.0,0.0,0.0,0.0,0.0,0.0,0.0,0.0,1676478080.133935,0.0
210,210.0,26394.146847027165,42912.10835124354,-37944.09786988472,-33404.90560590096,187500.0,9262.965233679442,-32049.227601197676,-11604.936314217606,-0.02,0.986,0.038,192.0,0.0,0.0,0.0,0.0,0.0,0.0,0.0,0.0,0.0,1676478080.133946,0.0
211,211.0,26286.366735263677,42834.25722530571,-38032.81194362783,-33426.49739104479,187500.0,9199.709796870924,-32502.945661895952,-12090.840886931526,-0.02,0.986,0.038,192.0,0.0,0.0,0.0,0.0,0.0,0.0,0.0,0.0,0.0,1676478080.19211,0.0
212,212.0,26296.000337123915,42825.89767287942,-37969.04241669684,-33394.55674821815,187500.0,9241.060524113242,-32391.27634659724,-12018.912973274348,-0.02,0.986,0.038,192.0,0.0,0.0,0.0,0.0,0.0,0.0,0.0,0.0,0.0,1676478080.192125,0.0
213,213.0,26391.822265603816,42890.91889749991,-37874.226316717424,-33371.62385840701,187500.0,9305.165327211062,-31958.725387898136,-11585.378537819211,-0.02,0.986,0.038,192.0,0.0,0.0,0.0,0.0,0.0,0.0,0.0,0.0,0.0,1676478080.192134,0.0
214,214.0,26400.22652151901,42914.09765650006,-37929.680994711045,-33409.71123095885,187500.0,9269.760163993855,-31991.001306891598,-11544.85482512174,-0.02,0.986,0.038,192.0,0.0,0.0,0.0,0.0,0.0,0.0,0.0,0.0,0.0,1676478080.19215,0.0
215,215.0,26292.446409755517,42838.81698117459,-38035.33769075128,-33443.440013341904,187500.0,9188.846849065643,-32459.113891019097,-12043.611650897463,-0.028,0.978,0.04,192.0,255.0,32.0,30.0,144.0,1.0,64.0,0.0,0.0,0.0,1676478080.192158,0.0
216,216.0,26270.117017044668,42809.78206512715,-37994.702219331535,-33416.550864762175,187500.0,9222.776797148801,-32453.32478920517,-12078.413317014376,-0.028,0.978,0.04,192.0,0.0,0.0,0.0,0.0,0.0,0.0,0.0,0.0,0.0,1676478080.192166,0.0
217,217.0,26358.98755299897,42872.21048739082,-37891.41480820356,-33383.80555913515,187500.0,9286.166344424051,-32020.86323748389,-11663.07320154586,-0.028,0.978,0.04,192.0,0.0,0.0,0.0,0.0,0.0,0.0,0.0,0.0,0.0,1676478080.192174,0.0
218,218.0,26398.952472085057,42915.952851289854,-37912.067820080265,-33402.692783199884,187500.0,9279.013786198353,-31919.54277986798,-11491.255341917915,-0.028,0.978,0.04,192.0,0.0,0.0,0.0,0.0,0.0,0.0,0.0,0.0,0.0,1676478080.192182,0.0
219,219.0,26292.021726610867,42844.5613794996,-38033.79542038387,-33450.1455366785,187500.0,9189.316235699205,-32393.422114064946,-11975.394126819865,-0.028,0.978,0.04,192.0,0.0,0.0,0.0,0.0,0.0,0.0,0.0,0.0,0.0,1676478080.19219,0.0
220,220.0,26246.602981877684,42792.70533236329,-38026.48639994698,-33434.45461207088,187500.0,9197.809898592222,-32517.809571958733,-12132.862166507502,-0.028,0.978,0.04,192.0,0.0,0.0,0.0,0.0,0.0,0.0,0.0,0.0,0.0,1676478080.192198,0.0
221,221.0,26329.93028520707,42839.64399571944,-37924.785962675334,-33402.82689366661,187500.0,9265.423925569527,-32115.20995082974,-11756.257624180034,-0.028,0.978,0.04,192.0,0.0,0.0,0.0,0.0,0.0,0.0,0.0,0.0,0.0,1676478080.192205,0.0
222,222.0,26398.550140684863,42901.73714181628,-37912.11252356917,-33406.894911157484,187500.0,9276.309225119261,-31902.55545408195,-11475.989100454939,-0.028,0.978,0.04,192.0,0.0,0.0,0.0,0.0,0.0,0.0,0.0,0.0,0.0,1676478080.192213,0.0
223,223.0,26309.545494263828,42849.50111502423,-38029.19096102607,-33451.55369657918,187500.0,9190.567933388702,-32317.202665472352,-11886.724756565662,-0.028,0.978,0.04,192.0,0.0,0.0,0.0,0.0,0.0,0.0,0.0,0.0,0.0,1676478080.192221,0.0
224,224.0,26238.019912006846,42791.20776548478,-38040.344481509266,-33439.886085973514,187500.0,9185.471735652893,-32540.92127572552,-12152.397591161442,-0.028,0.978,0.04,192.0,0.0,0.0,0.0,0.0,0.0,0.0,0.0,0.0,0.0,1676478080.192229,0.0
225,225.0,26304.82927618376,42824.84714089002,-37934.39721279111,-33399.29531804268,187500.0,9253.845721941678,-32182.488701640214,-11829.012552382059,-0.024,0.976,0.044,192.0,255.0,64.0,30.0,128.0,1.0,96.0,0.0,0.0,0.0,1676478080.192237,0.0
226,226.0,26390.503512680953,42897.356199903035,-37894.90168033858,-33396.478998241306,187500.0,9290.413175870559,-31880.896613704757,-11469.75296375191,-0.024,0.976,0.044,192.0,0.0,0.0,0.0,0.0,0.0,0.0,0.0,0.0,0.0,1676478080.259047,0.0
227,227.0,26320.11786939119,42858.59827501754,-38011.51073116192,-33450.10083318959,187500.0,9218.641724424568,-32225.336995761038,-11787.013624550536,-0.024,0.976,0.044,192.0,0.0,0.0,0.0,0.0,0.0,0.0,0.0,0.0,0.0,1676478080.259062,0.0
228,228.0,26229.593304347196,42779.2495822012,-38058.06941486233,-33456.78400478172,187500.0,9165.981014487865,-32557.34980790017,-12164.623995378495,-0.024,0.976,0.044,192.0,0.0,0.0,0.0,0.0,0.0,0.0,0.0,0.0,0.0,1676478080.259071,0.0
229,229.0,26281.762275905883,42801.48956793422,-37969.95883821951,-33422.94346367639,187500.0,9219.11111105813,-32284.099731934042,-11931.115321053901,-0.024,0.976,0.044,192.0,0.0,0.0,0.0,0.0,0.0,0.0,0.0,0.0,0.0,1676478080.259079,0.0
230,230.0,26379.864082320226,42879.13952817196,-37904.222357776445,-33408.75010594727,187500.0,9272.420021584037,-31910.26680591903,-11518.099787008738,-0.024,0.976,0.044,192.0,0.0,0.0,0.0,0.0,0.0,0.0,0.0,0.0,0.0,1676478080.259087,0.0
231,231.0,26338.133375422167,42872.94809495784,-37997.22796645498,-33454.45942335838,187500.0,9211.153890032041,-32147.865849478945,-11712.537612025453,-0.024,0.976,0.044,192.0,0.0,0.0,0.0,0.0,0.0,0.0,0.0,0.0,0.0,1676478080.259095,0.0
232,232.0,26230.554429358774,42791.65480037389,-38071.27929583541,-33467.87047003156,187500.0,9164.394040631538,-32557.10393871116,-12161.606509877029,-0.024,0.976,0.044,192.0,0.0,0.0,0.0,0.0,0.0,0.0,0.0,0.0,0.0,1676478080.259103,0.0
233,233.0,26260.68458088453,42794.605230641995,-37993.09289373075,-33434.70048125988,187500.0,9212.852622610644,-32366.510613740757,-12007.111252201945,-0.024,0.976,0.044,192.0,0.0,0.0,0.0,0.0,0.0,0.0,0.0,0.0,0.0,1676478080.259111,0.0
234,234.0,26362.519128622906,42868.25422862223,-37903.55180544279,-33406.91726290194,187500.0,9267.860265715155,-31938.206486488165,-11557.662374694632,-0.022,0.98,0.05,192.0,255.0,80.0,30.0,160.0,1.0,144.0,0.0,0.0,0.0,1676478080.259119,0.0
235,235.0,26352.97493374049,42875.49619382575,-37975.390312122145,-33445.4963738318,187500.0,9220.519270958814,-32066.416092683805,-11625.008180738472,-0.022,0.98,0.05,192.0,0.0,0.0,0.0,0.0,0.0,0.0,0.0,0.0,0.0,1676478080.259134,0.0
236,236.0,26244.703083598983,42793.30882946358,-38073.22389760303,-33476.2523742023,187500.0,9145.640927033535,-32537.456755334948,-12129.419997861385,-0.022,0.98,0.05,192.0,0.0,0.0,0.0,0.0,0.0,0.0,0.0,0.0,0.0,1676478080.259142,0.0
237,237.0,26252.190917991513,42786.89387880491,-38006.436885170566,-33437.62855978353,187500.0,9189.606808377124,-32433.968178506875,-12066.209264541778,-0.022,0.98,0.05,192.0,0.0,0.0,0.0,0.0,0.0,0.0,0.0,0.0,0.0,1676478080.25915,0.0
238,238.0,26343.564849324805,42853.65853949291,-37910.21262529047,-33409.621823981026,187500.0,9260.148913878074,-31992.409466792284,-11624.695256316098,-0.022,0.98,0.05,192.0,0.0,0.0,0.0,0.0,0.0,0.0,0.0,0.0,0.0,1676478080.259158,0.0
239,239.0,26363.03321874538,42887.87906025399,-37954.290265356336,-33432.15238239198,187500.0,9236.880747900099,-32000.81372270748,-11561.5292264854,-0.022,0.98,0.05,192.0,0.0,0.0,0.0,0.0,0.0,0.0,0.0,0.0,0.0,1676478080.259166,0.0
240,240.0,26248.1452522451,42805.4011232139,-38065.46784227703,-33467.42343514245,187500.0,9168.618520333592,-32476.883527861064,-12059.48138946073,-0.022,0.98,0.05,192.0,0.0,0.0,0.0,0.0,0.0,0.0,0.0,0.0,0.0,1676478080.259174,0.0
241,241.0,26227.827516535228,42774.15338446538,-38025.99466156896,-33438.03089118372,187500.0,9188.802145576734,-32488.931118122473,-12106.509459794695,-0.022,0.98,0.05,192.0,0.0,0.0,0.0,0.0,0.0,0.0,0.0,0.0,0.0,1676478080.312313,0.0
242,242.0,26321.660139758606,42831.61971945998,-37917.96868061646,-33405.50910300125,187500.0,9251.901120174065,-32054.234391955662,-11690.431736759156,-0.022,0.98,0.05,192.0,0.0,0.0,0.0,0.0,0.0,0.0,0.0,0.0,0.0,1676478080.312329,0.0
243,243.0,26363.949640268045,42878.49132758276,-37933.95017790201,-33427.74908873428,187500.0,9242.379277036105,-31941.469841178638,-11502.185344956559,-0.022,0.98,0.05,192.0,0.0,0.0,0.0,0.0,0.0,0.0,0.0,0.0,0.0,1676478080.312338,0.0
244,244.0,26265.62431640915,42817.47106521977,-38048.301702535355,-33466.39525489751,187500.0,9168.52911335577,-32404.821503737156,-11974.880036697394,-0.018000000000000002,0.976,0.056,192.0,255.0,112.0,30.0,128.0,1.0,192.0,0.0,0.0,0.0,1676478080.312346,0.0
245,245.0,26220.026757720323,42775.449785643796,-38036.25411227395,-33445.16109766497,187500.0,9177.983901260364,-32531.824115732208,-12140.573518344585,-0.018000000000000002,0.976,0.056,192.0,0.0,0.0,0.0,0.0,0.0,0.0,0.0,0.0,0.0,1676478080.312354,0.0
246,246.0,26301.118886604178,42822.835483889045,-37935.8053726918,-33409.2865478142,187500.0,9234.35500077665,-32140.75799474216,-11773.647281366264,-0.018000000000000002,0.976,0.056,192.0,0.0,0.0,0.0,0.0,0.0,0.0,0.0,0.0,0.0,1676478080.312362,0.0
247,247.0,26369.89520429316,42884.79451951916,-37920.53913122882,-33411.856998426556,187500.0,9260.171265622528,-31918.156971711753,-11480.213580156993,-0.018000000000000002,0.976,0.056,192.0,0.0,0.0,0.0,0.0,0.0,0.0,0.0,0.0,0.0,1676478080.31237,0.0
248,248.0,26290.591214965727,42844.449620777326,-38030.1744377821,-33451.93367623493,187500.0,9192.803107834234,-32315.772153827213,-11877.180561683246,-0.018000000000000002,0.976,0.056,192.0,0.0,0.0,0.0,0.0,0.0,0.0,0.0,0.0,0.0,1676478080.312378,0.0
249,249.0,26221.211400176457,42779.67426534585,-38046.848839145765,-33437.89678071699,187500.0,9180.174372216985,-32552.544182842277,-12155.660945851916,-0.018000000000000002,0.976,0.056,192.0,0.0,0.0,0.0,0.0,0.0,0.0,0.0,0.0,0.0,1676478080.312386,0.0
250,250.0,26293.54164523383,42818.47689372026,-37945.08134664075,-33399.11650408703,187500.0,9239.49590200137,-32209.936643831334,-11842.982392666627,-0.018000000000000002,0.976,0.056,192.0,0.0,0.0,0.0,0.0,0.0,0.0,0.0,0.0,0.0,1676478080.312394,0.0
251,251.0,26380.825207331804,42888.63901956547,-37903.28358450933,-33391.583966205595,187500.0,9279.438469343004,-31897.101628434855,-11467.629548028654,-0.018000000000000002,0.976,0.056,192.0,0.0,0.0,0.0,0.0,0.0,0.0,0.0,0.0,0.0,1676478080.312402,0.0
252,252.0,26312.339462320742,42853.27855983717,-38015.57874865279,-33444.26702788675,187500.0,9202.973151561398,-32229.181495807352,-11770.383926675788,-0.018000000000000002,0.976,0.056,192.0,0.0,0.0,0.0,0.0,0.0,0.0,0.0,0.0,0.0,1676478080.31241,0.0
253,253.0,26220.272626909333,42779.0484165011,-38059.365816040736,-33441.31659761865,187500.0,9175.43580239246,-32569.889136539598,-12156.510312141218,-0.018000000000000002,0.976,0.056,192.0,0.0,0.0,0.0,0.0,0.0,0.0,0.0,0.0,0.0,1676478080.312418,0.0
254,254.0,26274.92264210256,42805.26701274717,-37962.247486382425,-33398.781227920204,187500.0,9233.617393209624,-32291.29699364865,-11920.49824243763,-0.022,0.98,0.052000000000000005,192.0,255.0,80.0,30.0,160.0,1.0,160.0,0.0,0.0,0.0,1676478080.312426,0.0
255,255.0,26375.93017529609,42882.894621240455,-37892.71120938197,-33379.335210244084,187500.0,9281.494829832893,-31902.73426803759,-11498.005568743416,-0.022,0.98,0.052000000000000005,192.0,0.0,0.0,0.0,0.0,0.0,0.0,0.0,0.0,0.0,1676478080.312434,0.0
256,0.0,26345.285933647865,42876.54672581515,-37980.911193002605,-33418.89779792998,187500.0,9229.7281896744,-32124.955311412254,-11673.243245273025,-0.022,0.98,0.052000000000000005,192.0,0.0,0.0,0.0,0.0,0.0,0.0,0.0,0.0,0.0,1676478080.372802,0.0
257,1.0,26236.947028272993,42792.906498063385,-38064.10438586526,-33438.142649905996,187500.0,9177.827439049177,-32552.544182842277,-12131.319896140087,-0.022,0.98,0.052000000000000005,192.0,0.0,0.0,0.0,0.0,0.0,0.0,0.0,0.0,0.0,1676478080.372817,0.0
258,2.0,26263.38914196362,42797.82388184356,-37987.88493727266,-33402.02223086623,187500.0,9225.928393117,-32368.410512019458,-11978.724536743706,-0.022,0.98,0.052000000000000005,192.0,0.0,0.0,0.0,0.0,0.0,0.0,0.0,0.0,0.0,1676478080.372826,0.0
259,3.0,26363.793178056858,42869.72944375628,-37897.18155827303,-33374.55193693065,187500.0,9287.663911302556,-31940.218143489143,-11529.722694125498,-0.022,0.98,0.052000000000000005,192.0,0.0,0.0,0.0,0.0,0.0,0.0,0.0,0.0,0.0,1676478080.372834,0.0
260,4.0,26360.485119877474,42884.81687126361,-37962.62746603817,-33403.251576811264,187500.0,9250.649422484568,-32050.658112842815,-11574.806162691852,-0.022,0.98,0.052000000000000005,192.0,0.0,0.0,0.0,0.0,0.0,0.0,0.0,0.0,0.0,1676478080.372842,0.0
261,5.0,26253.800243592294,42806.63046915895,-38055.20839157205,-33428.79962072368,187500.0,9195.351206702138,-32513.495685278856,-12071.551331466597,-0.022,0.98,0.052000000000000005,192.0,0.0,0.0,0.0,0.0,0.0,0.0,0.0,0.0,0.0,1676478080.37285,0.0
262,6.0,26264.86435709767,42800.28257373364,-37992.310582674814,-33391.22633829431,187500.0,9229.951707118953,-32426.61445458108,-12027.116063489446,-0.022,0.98,0.052000000000000005,192.0,0.0,0.0,0.0,0.0,0.0,0.0,0.0,0.0,0.0,1676478080.372858,0.0
263,7.0,26372.97974502799,42876.323208370595,-37889.827834347234,-33359.643323378965,187500.0,9289.005015969875,-31979.55721373048,-11583.925674429616,-0.022,0.98,0.052000000000000005,192.0,0.0,0.0,0.0,0.0,0.0,0.0,0.0,0.0,0.0,1676478080.372865,0.0
264,8.0,26393.386887715686,42907.77211281921,-37930.709174955984,-33385.37018124702,187500.0,9269.78251573831,-31968.493100225107,-11496.910333265107,-0.022,0.984,0.052000000000000005,192.0,255.0,80.0,30.0,192.0,1.0,160.0,0.0,0.0,0.0,1676478080.372874,0.0
265,9.0,26274.699124658004,42828.19990255832,-38041.14914430966,-33419.545998519185,187500.0,9198.838078837167,-32446.57456237967,-12002.260923655143,-0.022,0.984,0.052000000000000005,192.0,0.0,0.0,0.0,0.0,0.0,0.0,0.0,0.0,0.0,1676478080.372881,0.0
266,10.0,26246.647685366595,42794.69463761981,-38010.348440450245,-33396.50134998576,187500.0,9223.134425060085,-32478.068170317194,-12075.261721046178,-0.022,0.984,0.052000000000000005,192.0,0.0,0.0,0.0,0.0,0.0,0.0,0.0,0.0,0.0,1676478080.372889,0.0
267,11.0,26340.413253356608,42852.51860052569,-37905.138779299115,-33361.31970421311,187500.0,9291.419004371048,-32048.981732008666,-11661.597986411809,-0.022,0.984,0.052000000000000005,192.0,0.0,0.0,0.0,0.0,0.0,0.0,0.0,0.0,0.0,1676478080.372897,0.0
268,12.0,26385.720239367514,42900.66425808243,-37915.30882302628,-33373.546108430164,187500.0,9298.616266085657,-31920.906236279756,-11453.07856238825,-0.022,0.984,0.052000000000000005,192.0,0.0,0.0,0.0,0.0,0.0,0.0,0.0,0.0,0.0,1676478080.372905,0.0
269,13.0,26280.82350263876,42832.826713660565,-38038.7798593974,-33417.51198977375,187500.0,9204.96245681792,-32380.815730192153,-11919.425358703777,-0.022,0.984,0.052000000000000005,192.0,0.0,0.0,0.0,0.0,0.0,0.0,0.0,0.0,0.0,1676478080.372913,0.0
270,14.0,26233.974246260437,42784.54694563711,-38036.41057448513,-33400.18938782089,187500.0,9203.509593428325,-32532.87464772161,-12111.382140085952,-0.022,0.984,0.052000000000000005,192.0,0.0,0.0,0.0,0.0,0.0,0.0,0.0,0.0,0.0,1676478080.372921,0.0
271,15.0,26322.73302349246,42839.398126530425,-37926.70821269849,-33360.805614090634,187500.0,9277.449164086482,-32131.83964870449,-11741.03608620597,-0.022,0.984,0.052000000000000005,192.0,0.0,0.0,0.0,0.0,0.0,0.0,0.0,0.0,0.0,1676478080.43843,0.0
272,16.0,26395.018565060924,42908.82264480861,-37912.201930546995,-33364.27013448121,187500.0,9302.818394043255,-31890.150235909256,-11432.067922600261,-0.022,0.984,0.052000000000000005,192.0,0.0,0.0,0.0,0.0,0.0,0.0,0.0,0.0,0.0,1676478080.438445,0.0
273,17.0,26310.148991364124,42858.37475757298,-38038.95867335304,-33415.72385021733,187500.0,9219.558145947236,-32298.0248687297,-11830.063084371459,-0.022,0.984,0.052000000000000005,192.0,0.0,0.0,0.0,0.0,0.0,0.0,0.0,0.0,0.0,1676478080.438454,0.0
274,18.0,26238.444595151497,42795.007562042185,-38060.416348030136,-33408.70540245836,187500.0,9212.58440167718,-32557.01453173334,-12128.570631572084,-0.022,0.988,0.064,192.0,255.0,80.0,30.0,224.0,2.0,0.0,0.0,0.0,0.0,1676478080.438463,0.0
275,19.0,26301.45416277101,42829.36219327,-37958.15711714711,-33372.24970725176,187500.0,9266.74267849239,-32217.513885201683,-11827.045598869992,-0.022,0.988,0.064,192.0,0.0,0.0,0.0,0.0,0.0,0.0,0.0,0.0,0.0,1676478080.438471,0.0
276,20.0,26392.112838281733,42907.995630263766,-37902.81419787576,-33356.08939601057,187500.0,9302.214896942962,-31885.791645740468,-11437.544099991812,-0.022,0.988,0.064,192.0,0.0,0.0,0.0,0.0,0.0,0.0,0.0,0.0,0.0,1676478080.438479,0.0
277,21.0,26324.00707292641,42875.74206301475,-38018.41742019861,-33409.84534142558,187500.0,9223.357942504637,-32209.824885109054,-11728.65321977773,-0.022,0.988,0.064,192.0,0.0,0.0,0.0,0.0,0.0,0.0,0.0,0.0,0.0,1676478080.438487,0.0
278,22.0,26226.106432212167,42795.499300420204,-38074.56500227034,-33419.99303340829,187500.0,9186.946950786943,-32571.900793540575,-12131.655172306917,-0.022,0.988,0.064,192.0,0.0,0.0,0.0,0.0,0.0,0.0,0.0,0.0,0.0,1676478080.438502,0.0
279,23.0,26273.939165346525,42817.35930649749,-37982.587573836754,-33381.97271608981,187500.0,9243.854492170154,-32310.050107246654,-11906.863678319893,-0.022,0.988,0.064,192.0,0.0,0.0,0.0,0.0,0.0,0.0,0.0,0.0,0.0,1676478080.43851,0.0
280,24.0,26373.78440782838,42893.48934811227,-37910.033811334826,-33365.4771286818,187500.0,9292.760109038367,-31916.301776921962,-11475.810286499296,-0.022,0.988,0.064,192.0,0.0,0.0,0.0,0.0,0.0,0.0,0.0,0.0,0.0,1676478080.438518,0.0
281,25.0,26339.697997534036,42883.028731707185,-38003.55351013583,-33413.15339960497,187500.0,9226.576593706202,-32134.208933616752,-11641.59317512431,-0.022,0.988,0.064,192.0,0.0,0.0,0.0,0.0,0.0,0.0,0.0,0.0,0.0,1676478080.438526,0.0
282,26.0,26236.298827683786,42803.65768714639,-38075.39201681519,-33429.269007357245,187500.0,9178.050956493731,-32563.34007541419,-12115.07017792108,-0.022,0.988,0.064,192.0,0.0,0.0,0.0,0.0,0.0,0.0,0.0,0.0,0.0,1676478080.438534,0.0
283,27.0,26264.10439778619,42807.56924242607,-37991.841196041256,-33393.21564355083,187500.0,9240.032343868297,-32384.771988960743,-11983.172533890312,-0.022,0.988,0.064,192.0,0.0,0.0,0.0,0.0,0.0,0.0,0.0,0.0,0.0,1676478080.438542,0.0
284,28.0,26362.2732594339,42877.88783048247,-37899.03675306282,-33370.1262915285,187500.0,9289.072071203242,-31950.455242449672,-11538.573984929799,-0.022,0.994,0.062,192.0,255.0,80.0,31.0,16.0,1.0,240.0,0.0,0.0,0.0,1676478080.43855,0.0
285,29.0,26355.187756441566,42890.33775214407,-37962.29218987134,-33407.721925702324,187500.0,9246.559053249246,-32049.384063408863,-11571.967491146028,-0.022,0.994,0.062,192.0,0.0,0.0,0.0,0.0,0.0,0.0,0.0,0.0,0.0,1676478080.438558,0.0
286,30.0,26244.01017952087,42807.9045185929,-38058.449394518066,-33437.13682140551,187500.0,9173.848828536133,-32526.280883107294,-12081.788430427127,-0.022,0.994,0.062,192.0,0.0,0.0,0.0,0.0,0.0,0.0,0.0,0.0,0.0,1676478080.494097,0.0
287,31.0,26243.652551609583,42795.164024253376,-37998.747885077944,-33403.72096344483,187500.0,9212.830270866189,-32454.487079916846,-12056.57566268154,-0.022,0.994,0.062,192.0,0.0,0.0,0.0,0.0,0.0,0.0,0.0,0.0,0.0,1676478080.494112,0.0
288,32.0,26344.458919103017,42865.21439137631,-37894.164072771564,-33374.19430901937,187500.0,9277.605626297669,-32006.53576928804,-11622.415378381656,-0.022,0.994,0.062,192.0,0.0,0.0,0.0,0.0,0.0,0.0,0.0,0.0,0.0,1676478080.494121,0.0
289,33.0,26371.593936871763,42904.30759242864,-37935.09011686923,-33402.02223086623,187500.0,9266.005070925365,-31984.51930099956,-11529.543880169855,-0.022,0.994,0.062,192.0,0.0,0.0,0.0,0.0,0.0,0.0,0.0,0.0,0.0,1676478080.494129,0.0
290,34.0,26255.655438382084,42829.406896758905,-38054.67194970512,-33444.82582149814,187500.0,9183.705947840923,-32471.65321965852,-12040.1918339958,-0.022,0.994,0.062,192.0,0.0,0.0,0.0,0.0,0.0,0.0,0.0,0.0,0.0,1676478080.494138,0.0
291,35.0,26218.931522242015,42788.7490735947,-38027.00049006945,-33426.65385325597,187500.0,9186.276398453283,-32518.748345225853,-12127.83302400506,-0.022,0.994,0.062,192.0,0.0,0.0,0.0,0.0,0.0,0.0,0.0,0.0,0.0,1676478080.494145,0.0
292,36.0,26307.690299474038,42845.075469622076,-37922.50608474089,-33395.383762763,187500.0,9262.45114355697,-32095.205139542242,-11729.435530833665,-0.022,0.994,0.062,192.0,0.0,0.0,0.0,0.0,0.0,0.0,0.0,0.0,0.0,1676478080.494153,0.0
293,37.0,26357.445282631554,42894.986914990775,-37932.542018001324,-33409.957100147854,187500.0,9262.719364490435,-31959.70886465417,-11517.362179441712,-0.022,0.994,0.062,192.0,0.0,0.0,0.0,0.0,0.0,0.0,0.0,0.0,0.0,1676478080.494161,0.0
294,38.0,26258.114130272166,42829.76452467019,-38050.24630430297,-33456.806356526184,187500.0,9173.357090158117,-32420.981814978342,-11988.067565926023,-0.026000000000000002,0.998,0.07200000000000001,192.0,255.0,48.0,31.0,48.0,2.0,64.0,0.0,0.0,0.0,1676478080.49417,0.0
295,39.0,26202.480638322908,42774.13103272093,-38046.222990301016,-33443.66353078646,187500.0,9171.725412812879,-32568.592735361188,-12189.434431723885,-0.026000000000000002,0.998,0.07200000000000001,192.0,0.0,0.0,0.0,0.0,0.0,0.0,0.0,0.0,0.0,1676478080.494177,0.0
296,40.0,26279.035363082334,42817.64987917541,-37944.79077396283,-33412.058164126654,187500.0,9238.333611289694,-32178.30892542707,-11837.05918038597,-0.026000000000000002,0.998,0.07200000000000001,192.0,0.0,0.0,0.0,0.0,0.0,0.0,0.0,0.0,0.0,1676478080.494185,0.0
297,41.0,26347.811680771316,42880.54768807265,-37929.85980866668,-33419.23307409681,187500.0,9258.047849899274,-31939.100556266378,-11535.645906406155,-0.026000000000000002,0.998,0.07200000000000001,192.0,0.0,0.0,0.0,0.0,0.0,0.0,0.0,0.0,0.0,1676478080.494193,0.0
298,42.0,26262.360961718674,42830.748001426226,-38051.028615358904,-33471.08912123312,187500.0,9169.914921512,-32335.844020348075,-11912.608076644907,-0.026000000000000002,0.998,0.07200000000000001,192.0,0.0,0.0,0.0,0.0,0.0,0.0,0.0,0.0,0.0,1676478080.494201,0.0
299,43.0,26184.062800891734,42764.76565179416,-38078.67772325012,-33467.75871130928,187500.0,9165.757497043312,-32609.54113120331,-12216.055359370155,-0.026000000000000002,0.998,0.07200000000000001,192.0,0.0,0.0,0.0,0.0,0.0,0.0,0.0,0.0,0.0,1676478080.494218,0.0
300,44.0,26244.61367662116,42797.19803299881,-37981.537041847354,-33432.77823123673,187500.0,9239.898233401565,-32277.885946975464,-11923.06869304999,-0.026000000000000002,0.998,0.07200000000000001,192.0,0.0,0.0,0.0,0.0,0.0,0.0,0.0,0.0,0.0,1676478080.494226,0.0
301,45.0,26332.053700930323,42869.21535363381,-37936.095945369714,-33422.36231832056,187500.0,9271.45889657246,-31934.250227719574,-11536.696438395553,-0.026000000000000002,0.998,0.07200000000000001,192.0,0.0,0.0,0.0,0.0,0.0,0.0,0.0,0.0,0.0,1676478080.552128,0.0
302,46.0,26274.207386279988,42840.53806549765,-38046.82648740131,-33468.42926364294,187500.0,9199.262761981818,-32248.739272205745,-11817.613162709853,-0.026000000000000002,0.998,0.07200000000000001,192.0,0.0,0.0,0.0,0.0,0.0,0.0,0.0,0.0,0.0,1676478080.552147,0.0
303,47.0,26181.09001887918,42766.73260530622,-38096.402656603175,-33474.88891779052,187500.0,9160.817761518689,-32613.92207311655,-12215.295400058676,-0.032,0.974,0.074,192.0,255.0,0.0,30.0,112.0,2.0,80.0,0.0,0.0,0.0,1676478080.552158,0.0
304,48.0,26228.833345035717,42788.27968696114,-37997.78676006637,-33437.13682140551,187500.0,9204.850698095644,-32361.25795379376,-11997.90233348636,-0.032,0.974,0.074,192.0,0.0,0.0,0.0,0.0,0.0,0.0,0.0,0.0,0.0,1676478080.552169,0.0
305,49.0,26322.084822903256,42870.39999608994,-37917.722811427455,-33415.54503626168,187500.0,9262.875826701622,-31957.764262886558,-11569.777020189407,-0.032,0.974,0.074,192.0,0.0,0.0,0.0,0.0,0.0,0.0,0.0,0.0,0.0,1676478080.552179,0.0
306,50.0,26293.653403956105,42872.94809495784,-38003.37469618019,-33456.42637687044,187500.0,9196.714663113913,-32152.738529770202,-11712.448205047633,-0.032,0.974,0.074,192.0,0.0,0.0,0.0,0.0,0.0,0.0,0.0,0.0,0.0,1676478080.552189,0.0
307,51.0,26183.83928344718,42789.37492243945,-38085.18208088662,-33478.08521724764,187500.0,9145.193892144429,-32591.570328661244,-12184.047661310156,-0.032,0.974,0.074,192.0,0.0,0.0,0.0,0.0,0.0,0.0,0.0,0.0,0.0,1676478080.5522,0.0
308,52.0,26200.983071444403,42782.46823340276,-38014.86349283022,-33450.36905412305,187500.0,9196.133517758075,-32433.074108728662,-12061.135418550422,-0.032,0.974,0.074,192.0,0.0,0.0,0.0,0.0,0.0,0.0,0.0,0.0,0.0,1676478080.55221,0.0
309,53.0,26312.49592453193,42861.23578086326,-37914.571215459255,-33419.85892294156,187500.0,9257.377297565616,-31998.265623839576,-11612.804128265874,-0.032,0.974,0.074,192.0,0.0,0.0,0.0,0.0,0.0,0.0,0.0,0.0,0.0,1676478080.55222,0.0
310,54.0,26316.40747981161,42884.146318929954,-37970.27176264188,-33449.85496400058,187500.0,9228.722361173912,-32069.00889504062,-11616.961552734561,-0.032,0.974,0.074,192.0,0.0,0.0,0.0,0.0,0.0,0.0,0.0,0.0,0.0,1676478080.55223,0.0
311,55.0,26196.289205108787,42795.789873098125,-38077.58248777181,-33482.734380094334,187500.0,9157.129723683563,-32551.53835434179,-12125.173166414877,-0.032,0.974,0.074,192.0,0.0,0.0,0.0,0.0,0.0,0.0,0.0,0.0,0.0,1676478080.55224,0.0
312,56.0,26191.79650447327,42776.477965888735,-38019.24443474346,-33447.08334768812,187500.0,9193.585418890169,-32499.525844994292,-12106.554163283607,-0.032,0.974,0.074,192.0,0.0,0.0,0.0,0.0,0.0,0.0,0.0,0.0,0.0,1676478080.552251,0.0
313,57.0,26290.412401010086,42842.72853645427,-37913.4983317254,-33415.32151881713,187500.0,9260.037155155796,-32050.72516807618,-11669.465800460077,-0.03,0.968,0.08,192.0,255.0,16.0,30.0,64.0,2.0,128.0,0.0,0.0,0.0,1676478080.552261,0.0
314,58.0,26319.983758924456,42886.13562418647,-37948.16588737558,-33437.24858012779,187500.0,9234.198538565463,-32009.508551300594,-11551.403886247146,-0.03,0.968,0.08,192.0,0.0,0.0,0.0,0.0,0.0,0.0,0.0,0.0,0.0,1676478080.552271,0.0
315,59.0,26208.448554092476,42810.609079671995,-38066.071339377326,-33481.01329577128,187500.0,9147.362011356594,-32494.5190542363,-12049.57956666703,-0.03,0.968,0.08,192.0,0.0,0.0,0.0,0.0,0.0,0.0,0.0,0.0,0.0,1676478080.552282,0.0
316,60.0,26178.161940355534,42772.5440588646,-38037.058775074336,-33458.01335072677,187500.0,9175.256988436817,-32558.82502303422,-12153.939861528857,-0.03,0.968,0.08,192.0,0.0,0.0,0.0,0.0,0.0,0.0,0.0,0.0,0.0,1676478080.611894,0.0
317,61.0,26272.754522890395,42829.18337931435,-37929.07749761075,-33423.50225728777,187500.0,9253.532797519303,-32126.02819514611,-11749.328583398888,-0.03,0.968,0.08,192.0,0.0,0.0,0.0,0.0,0.0,0.0,0.0,0.0,0.0,1676478080.611911,0.0
318,62.0,26336.12171842119,42891.94707774485,-37928.764573188375,-33428.71021374586,187500.0,9262.272329601328,-31953.85270760688,-11508.265019448403,-0.03,0.968,0.08,192.0,0.0,0.0,0.0,0.0,0.0,0.0,0.0,0.0,0.0,1676478080.611921,0.0
319,63.0,26236.522345128342,42830.68094619286,-38052.05679560385,-33474.86656604607,187500.0,9180.643758850547,-32402.02753568024,-11954.204673076234,-0.03,0.968,0.08,192.0,0.0,0.0,0.0,0.0,0.0,0.0,0.0,0.0,0.0,1676478080.61193,0.0
320,64.0,26184.152207869556,42776.12033797745,-38048.63697870219,-33454.66058905847,187500.0,9182.7671745738,-32583.903680313073,-12168.401440191441,-0.03,0.968,0.08,192.0,0.0,0.0,0.0,0.0,0.0,0.0,0.0,0.0,0.0,1676478080.611947,0.0
321,65.0,26270.407589722585,42821.27086177717,-37937.437050037035,-33412.12521936002,187500.0,9250.06827712873,-32192.099951755998,-11814.998008608582,-0.03,0.968,0.08,192.0,0.0,0.0,0.0,0.0,0.0,0.0,0.0,0.0,0.0,1676478080.611955,0.0
322,66.0,26347.431701115573,42884.81687126361,-37908.424485734045,-33408.95127164737,187500.0,9272.397669839582,-31916.92762576671,-11480.727670279464,-0.03,0.968,0.08,192.0,0.0,0.0,0.0,0.0,0.0,0.0,0.0,0.0,0.0,1676478080.611964,0.0
323,67.0,26266.183110020535,42836.49239975124,-38032.588426183276,-33463.66834207396,187500.0,9190.836154322167,-32311.055935747143,-11852.615994526863,-0.028,0.972,0.09,192.0,255.0,32.0,30.0,96.0,2.0,208.0,0.0,0.0,0.0,1676478080.611972,0.0
324,68.0,26191.058896906245,42773.66164608737,-38058.13647009569,-33457.83453677112,187500.0,9180.084965239164,-32591.72679087243,-12171.575387904095,-0.028,0.972,0.09,192.0,0.0,0.0,0.0,0.0,0.0,0.0,0.0,0.0,0.0,1676478080.611981,0.0
325,69.0,26252.705008113982,42807.34572498152,-37954.73730024544,-33420.79769620868,187500.0,9240.188806079484,-32261.47976654527,-11883.103773963901,-0.028,0.972,0.09,192.0,0.0,0.0,0.0,0.0,0.0,0.0,0.0,0.0,0.0,1676478080.611989,0.0
326,70.0,26345.755320281427,42883.74398752976,-37902.21070077547,-33411.432315281905,187500.0,9277.762088508856,-31913.820733287423,-11486.807344771309,-0.028,0.972,0.09,192.0,0.0,0.0,0.0,0.0,0.0,0.0,0.0,0.0,0.0,1676478080.611998,0.0
327,71.0,26292.91579638908,42862.53218204167,-38006.74980959294,-33456.53813559272,187500.0,9205.364788218116,-32212.7529636327,-11743.85240600734,-0.028,0.972,0.09,192.0,0.0,0.0,0.0,0.0,0.0,0.0,0.0,0.0,0.0,1676478080.612006,0.0
328,72.0,26204.872274979625,42792.928849807846,-38058.69526370708,-33457.34279839311,187500.0,9176.128706470574,-32592.799674606285,-12152.531701628173,-0.028,0.972,0.09,192.0,0.0,0.0,0.0,0.0,0.0,0.0,0.0,0.0,0.0,1676478080.612015,0.0
329,73.0,26251.2968482133,42810.385562227435,-37968.6624370411,-33417.869617685035,187500.0,9247.274309071816,-32347.48927920929,-11946.31450728351,-0.028,0.972,0.09,192.0,0.0,0.0,0.0,0.0,0.0,0.0,0.0,0.0,0.0,1676478080.612024,0.0
330,74.0,26353.64548607415,42886.76147303122,-37888.68789538001,-33395.33905927408,187500.0,9289.250885158883,-31936.46305042065,-11508.399129915135,-0.028,0.972,0.09,192.0,0.0,0.0,0.0,0.0,0.0,0.0,0.0,0.0,0.0,1676478080.612032,0.0
331,75.0,26329.416195084596,42891.7235603003,-37964.79558525033,-33429.38076607952,187500.0,9233.483282742893,-32112.237168817184,-11628.785625551418,-0.028,0.972,0.09,192.0,0.0,0.0,0.0,0.0,0.0,0.0,0.0,0.0,0.0,1676478080.673184,0.0
332,76.0,26218.976225730923,42808.776236626654,-38046.73708042349,-33451.10666169008,187500.0,9174.519380869791,-32556.455738121957,-12105.570686527573,-0.028,0.972,0.09,192.0,0.0,0.0,0.0,0.0,0.0,0.0,0.0,0.0,0.0,1676478080.673198,0.0
333,77.0,26242.937295787015,42808.19509127082,-37973.512765587904,-33416.41675429544,187500.0,9223.424997738004,-32410.208274150882,-11996.740042774683,-0.03,0.964,0.09,192.0,255.0,16.0,30.0,32.0,2.0,208.0,0.0,0.0,0.0,1676478080.673205,0.0
334,78.0,26349.800986027836,42879.98889446126,-37879.72484585343,-33391.718076672325,187500.0,9290.167306681551,-31968.09076882491,-11552.342659514268,-0.03,0.964,0.09,192.0,0.0,0.0,0.0,0.0,0.0,0.0,0.0,0.0,0.0,1676478080.673212,1.0
335,79.0,26356.953544253534,42906.319249429616,-37940.722756471965,-33422.764649720746,187500.0,9265.558036036258,-32029.021624210076,-11546.799426889353,-0.03,0.964,0.09,192.0,0.0,0.0,0.0,0.0,0.0,0.0,0.0,0.0,0.0,1676478080.673218,1.0
336,80.0,26238.824574807237,42820.93558561034,-38054.67194970512,-33457.11928094856,187500.0,9189.830325821678,-32515.14971436855,-12052.529996935129,-0.03,0.964,0.09,192.0,0.0,0.0,0.0,0.0,0.0,0.0,0.0,0.0,0.0,1676478080.673225,1.0
337,81.0,26236.321179428243,42806.63046915895,-38001.34068743476,-33419.00955665226,187500.0,9219.245221524861,-32479.72219940689,-12051.591223668007,-0.03,0.964,0.09,192.0,0.0,0.0,0.0,0.0,0.0,0.0,0.0,0.0,0.0,1676478080.673231,1.0
338,82.0,26340.703826034525,42878.44662409385,-37894.81227336077,-33378.95523058835,187500.0,9294.928228250532,-32030.742708533136,-11612.960590477061,-0.03,0.964,0.09,192.0,0.0,0.0,0.0,0.0,0.0,0.0,0.0,0.0,0.0,1676478080.673237,1.0
339,83.0,26375.41608517362,42921.80900833714,-37923.176637074546,-33394.08736158459,187500.0,9288.669739803045,-31964.268620523053,-11465.640242772131,-0.03,0.964,0.09,192.0,0.0,0.0,0.0,0.0,0.0,0.0,0.0,0.0,0.0,1676478080.673244,1.0
340,84.0,26262.249202996398,42848.00354814572,-38041.462068732035,-33435.03575742671,187500.0,9202.079081783186,-32443.154745478005,-11957.333917299977,-0.03,0.964,0.09,192.0,0.0,0.0,0.0,0.0,0.0,0.0,0.0,0.0,0.0,1676478080.673251,1.0
341,85.0,26222.552504843774,42805.82580635855,-38018.68564113208,-33414.449800783375,187500.0,9217.032398823787,-32521.475258049402,-12074.725279179249,-0.03,0.964,0.09,192.0,0.0,0.0,0.0,0.0,0.0,0.0,0.0,0.0,0.0,1676478080.673257,1.0
342,86.0,26314.954616422012,42864.18621113136,-37907.75393340039,-33379.64813466646,187500.0,9292.916571249554,-32097.01563084312,-11676.484248219043,-0.03,0.964,0.09,192.0,0.0,0.0,0.0,0.0,0.0,0.0,0.0,0.0,0.0,1676478080.673271,1.0
343,87.0,26381.40635268764,42928.26866248473,-37899.70730539648,-33385.23607078029,187500.0,9300.113832964164,-31909.976233241112,-11420.757939905876,-0.032,0.97,0.096,192.0,255.0,0.0,30.0,80.0,3.0,0.0,0.0,0.0,0.0,1676478080.673278,1.0
344,88.0,26287.417267253077,42868.90242921143,-38017.63510914268,-33431.8394579696,187500.0,9216.518308701314,-32346.282285008707,-11860.416753341766,-0.032,0.97,0.096,192.0,0.0,0.0,0.0,0.0,0.0,0.0,0.0,0.0,0.0,1676478080.723796,1.0
345,89.0,26231.806127048272,42814.453579718305,-38021.05492604434,-33419.14366711899,187500.0,9218.373503491104,-32538.44023209098,-12094.283055577644,-0.032,0.97,0.096,192.0,0.0,0.0,0.0,0.0,0.0,0.0,0.0,0.0,0.0,1676478080.723808,0.0
346,90.0,26302.415287782587,42855.558437771615,-37917.588700960725,-33386.823044636614,187500.0,9281.36071936616,-32166.6413148214,-11754.581243345887,-0.032,0.97,0.096,192.0,0.0,0.0,0.0,0.0,0.0,0.0,0.0,0.0,0.0,1676478080.723816,0.0
347,91.0,26375.59489912926,42918.8809298135,-37892.487691937415,-33391.8298353946,187500.0,9304.003036499385,-31891.78191325449,-11422.724893417942,-0.032,0.97,0.096,192.0,0.0,0.0,0.0,0.0,0.0,0.0,0.0,0.0,0.0,1676478080.723822,0.0
348,92.0,26306.013918639892,42883.453414851836,-38004.693449103055,-33438.18735339491,187500.0,9224.49788147186,-32261.546821778637,-11776.262435467534,-0.032,0.97,0.096,192.0,0.0,0.0,0.0,0.0,0.0,0.0,0.0,0.0,0.0,1676478080.723829,0.0
349,93.0,26223.0889467107,42815.72762915226,-38040.903275120654,-33437.47209757234,187500.0,9197.832250336678,-32562.624819591623,-12120.076968679068,-0.032,0.97,0.096,192.0,0.0,0.0,0.0,0.0,0.0,0.0,0.0,0.0,0.0,1676478080.723835,0.0
350,94.0,26279.236528782432,42839.062850363596,-37945.99776816342,-33403.63155646701,187500.0,9275.593969296691,-32250.52741176217,-11851.364296837366,-0.032,0.97,0.096,192.0,0.0,0.0,0.0,0.0,0.0,0.0,0.0,0.0,0.0,1676478080.723842,0.0
351,95.0,26378.50062590845,42917.33865944608,-37885.558651156265,-33387.29243127018,187500.0,9322.666743119567,-31885.03168642899,-11444.69665821751,-0.032,0.97,0.096,192.0,0.0,0.0,0.0,0.0,0.0,0.0,0.0,0.0,0.0,1676478080.723848,0.0
352,96.0,26325.795212482837,42897.222089436305,-37991.01418149641,-33434.9910539378,187500.0,9224.140253560574,-32173.257431180173,-11691.951655382116,-0.032,0.97,0.096,192.0,0.0,0.0,0.0,0.0,0.0,0.0,0.0,0.0,0.0,1676478080.723855,0.0
353,97.0,26222.306635654764,42816.21936753028,-38049.86632464723,-33444.73641452032,187500.0,9178.877971038577,-32571.051427251274,-12123.340323369543,-0.038,0.972,0.092,192.0,254.0,208.0,30.0,96.0,2.0,224.0,0.0,0.0,0.0,1676478080.723861,0.0
354,98.0,26259.119958772655,42826.18824555734,-37964.10268117222,-33410.381783292505,187500.0,9236.947803133466,-32341.54371518418,-11933.864585621905,-0.038,0.972,0.092,192.0,0.0,0.0,0.0,0.0,0.0,0.0,0.0,0.0,0.0,1676478080.723868,0.0
355,99.0,26360.39571289965,42900.999534249255,-37886.56447965676,-33394.243823795776,187500.0,9289.943789236999,-31927.857628805355,-11499.883115277662,-0.038,0.972,0.092,192.0,0.0,0.0,0.0,0.0,0.0,0.0,0.0,0.0,0.0,1676478080.723874,0.0
356,100.0,26342.849593502237,42903.860557539534,-37968.64008529665,-33436.80154523868,187500.0,9236.657230455547,-32094.02049708611,-11612.379445121223,-0.038,0.972,0.092,192.0,0.0,0.0,0.0,0.0,0.0,0.0,0.0,0.0,0.0,1676478080.723881,0.0
357,101.0,26226.553467101276,42817.47106521977,-38055.90129565016,-33460.919077505954,187500.0,9183.035395507264,-32548.565572329233,-12094.998311400213,-0.038,0.972,0.092,192.0,0.0,0.0,0.0,0.0,0.0,0.0,0.0,0.0,0.0,1676478080.723887,0.0
358,102.0,26239.830403307726,42811.39139072793,-37987.773178550386,-33429.42546956843,187500.0,9224.699047171956,-32423.820486524164,-12005.70309230126,-0.038,0.972,0.092,192.0,0.0,0.0,0.0,0.0,0.0,0.0,0.0,0.0,0.0,1676478080.723894,0.0
359,103.0,26343.29662839134,42886.515603842214,-37888.866709335656,-33403.76566693374,187500.0,9274.990472196398,-31980.85361490889,-11559.47286599551,-0.038,0.972,0.092,192.0,0.0,0.0,0.0,0.0,0.0,0.0,0.0,0.0,0.0,1676478080.782737,0.0
360,104.0,26347.766977282405,42907.61565060802,-37947.025948408365,-33441.69657727439,187500.0,9233.505634487348,-32031.301502144517,-11542.843168120762,-0.038,0.972,0.092,192.0,0.0,0.0,0.0,0.0,0.0,0.0,0.0,0.0,0.0,1676478080.78275,0.0
361,105.0,26231.0908712257,42824.84714089002,-38056.840068917285,-33472.85490904509,187500.0,9159.43195336246,-32517.675461492,-12060.263700516665,-0.038,0.972,0.092,192.0,0.0,0.0,0.0,0.0,0.0,0.0,0.0,0.0,0.0,1676478080.782757,0.0
362,106.0,26217.99274897489,42796.03574228713,-38008.96263229402,-33445.2952081317,187500.0,9189.383290932572,-32491.7697896683,-12076.803991413593,-0.038,0.972,0.092,192.0,0.0,0.0,0.0,0.0,0.0,0.0,0.0,0.0,0.0,1676478080.782764,0.0
363,107.0,26322.129526392167,42866.041405921154,-37900.26609900786,-33409.554768747665,187500.0,9258.763105721844,-32044.77960405107,-11641.704933846586,-0.036000000000000004,0.972,0.094,192.0,254.0,224.0,30.0,96.0,2.0,240.0,0.0,0.0,0.0,1676478080.782777,0.0
364,108.0,26355.947715753045,42907.213319207825,-37930.955044145,-33434.61107428206,187500.0,9250.7835329513,-31967.28610602452,-11493.490516363445,-0.036000000000000004,0.972,0.094,192.0,0.0,0.0,0.0,0.0,0.0,0.0,0.0,0.0,0.0,1676478080.782783,0.0
365,109.0,26248.636990623116,42834.39133577244,-38051.945036881574,-33475.80533931319,187500.0,9171.278377923772,-32445.27816120126,-11988.402842092853,-0.036000000000000004,0.972,0.094,192.0,0.0,0.0,0.0,0.0,0.0,0.0,0.0,0.0,0.0,1676478080.782789,0.0
366,110.0,26213.298882639276,42793.77821609715,-38030.71087964903,-33452.112490190564,187500.0,9183.05774725172,-32540.317778625227,-12118.132366911455,-0.036000000000000004,0.972,0.094,192.0,0.0,0.0,0.0,0.0,0.0,0.0,0.0,0.0,0.0,1676478080.782796,0.0
367,111.0,26296.380316779654,42844.9637108998,-37924.07070685276,-33415.790905450696,187500.0,9253.868073686132,-32120.507314265647,-11723.065283663904,-0.036000000000000004,0.972,0.094,192.0,0.0,0.0,0.0,0.0,0.0,0.0,0.0,0.0,0.0,1676478080.782802,0.0
368,112.0,26353.82430002979,42900.28427842668,-37921.25438705139,-33422.38467006501,187500.0,9259.970099922431,-31921.733250824604,-11454.687887989032,-0.036000000000000004,0.972,0.094,192.0,0.0,0.0,0.0,0.0,0.0,0.0,0.0,0.0,0.0,1676478080.782809,0.0
369,113.0,26259.187014006024,42841.90152190942,-38046.93824612359,-33474.643048601516,187500.0,9167.635043577558,-32363.224907305826,-11899.152326482812,-0.036000000000000004,0.972,0.094,192.0,0.0,0.0,0.0,0.0,0.0,0.0,0.0,0.0,0.0,1676478080.782815,0.0
370,114.0,26193.629347518607,42781.19418396881,-38057.756490439955,-33463.48952811832,187500.0,9156.459171349905,-32575.030037764318,-12147.659021336916,-0.036000000000000004,0.972,0.094,192.0,0.0,0.0,0.0,0.0,0.0,0.0,0.0,0.0,0.0,1676478080.782822,0.0
371,115.0,26268.507691443887,42820.5556059546,-37948.970550175974,-33426.02800441122,187500.0,9226.934221617488,-32202.22529199425,-11809.231258539112,-0.036000000000000004,0.972,0.094,192.0,0.0,0.0,0.0,0.0,0.0,0.0,0.0,0.0,0.0,1676478080.782828,0.0
372,116.0,26342.78253826887,42880.994722961754,-37920.092096339715,-33428.46434455685,187500.0,9259.791285966789,-31909.998584985566,-11460.655803758598,-0.036000000000000004,0.982,0.09,192.0,254.0,224.0,30.0,176.0,2.0,208.0,0.0,0.0,0.0,1676478080.782835,0.0
373,117.0,26268.932374588538,42848.629396990465,-38038.444583230565,-33477.369961425065,187500.0,9184.10827924112,-32281.32811562158,-11807.353712004866,-0.036000000000000004,0.982,0.09,192.0,0.0,0.0,0.0,0.0,0.0,0.0,0.0,0.0,0.0,1676478080.782841,0.0
374,118.0,26179.793617700772,42771.873506530945,-38084.06449366385,-33481.080351004646,187500.0,9150.535959069248,-32603.752029389387,-12163.841684322559,-0.036000000000000004,0.982,0.09,192.0,0.0,0.0,0.0,0.0,0.0,0.0,0.0,0.0,0.0,1676478080.844295,0.0
375,119.0,26241.86441205316,42796.683942876334,-37983.68280931507,-33436.265103371756,187500.0,9210.259820253828,-32298.784828041178,-11894.056128747003,-0.036000000000000004,0.982,0.09,192.0,0.0,0.0,0.0,0.0,0.0,0.0,0.0,0.0,0.0,1676478080.844308,0.0
376,120.0,26340.189735912056,42874.89269672545,-37919.26508179487,-33421.95998692036,187500.0,9260.953576678465,-31929.64576836178,-11481.688795291042,-0.036000000000000004,0.982,0.09,192.0,0.0,0.0,0.0,0.0,0.0,0.0,0.0,0.0,0.0,1676478080.844315,0.0
377,121.0,26297.63201446915,42860.38641457396,-38017.88097833168,-33468.071635731656,187500.0,9200.715625371413,-32197.374963447448,-11704.535687510453,-0.036000000000000004,0.982,0.09,192.0,0.0,0.0,0.0,0.0,0.0,0.0,0.0,0.0,0.0,1676478080.844322,0.0
378,122.0,26198.47967606541,42781.39534966891,-38079.34827558378,-33477.39231316952,187500.0,9158.984918473354,-32596.68887814151,-12140.573518344585,-0.036000000000000004,0.982,0.09,192.0,0.0,0.0,0.0,0.0,0.0,0.0,0.0,0.0,0.0,1676478080.844328,0.0
379,123.0,26235.76238581686,42794.15819575288,-37993.38346640867,-33440.601341796086,187500.0,9210.39393072056,-32380.256936580772,-11962.519522013608,-0.036000000000000004,0.982,0.09,192.0,0.0,0.0,0.0,0.0,0.0,0.0,0.0,0.0,0.0,1676478080.844335,0.0
380,124.0,26337.64163704415,42870.042368178656,-37915.08530558173,-33414.00276589427,187500.0,9264.663966258046,-31962.234611777618,-11518.792691086852,-0.036000000000000004,0.982,0.09,192.0,0.0,0.0,0.0,0.0,0.0,0.0,0.0,0.0,0.0,1676478080.844341,0.0
381,125.0,26328.276256117377,42882.179365417884,-37988.19786169504,-33446.41279535447,187500.0,9215.311314500728,-32110.337270538483,-11612.804128265874,-0.036000000000000004,0.982,0.09,192.0,0.0,0.0,0.0,0.0,0.0,0.0,0.0,0.0,0.0,1676478080.844348,0.0
382,126.0,26216.964568729945,42799.74613186671,-38080.197641873085,-33470.82090029966,187500.0,9154.223996904373,-32569.10682548366,-12101.815593459081,-0.034,0.984,0.094,192.0,254.0,240.0,30.0,192.0,2.0,240.0,0.0,0.0,0.0,1676478080.844354,0.0
383,127.0,26228.22984793542,42789.75490209519,-38012.941242807065,-33437.13682140551,187500.0,9213.545526688758,-32447.513335646792,-12019.516470374641,-0.034,0.984,0.094,192.0,0.0,0.0,0.0,0.0,0.0,0.0,0.0,0.0,0.0,1676478080.844361,0.0
384,128.0,26334.82531724278,42864.05210066463,-37915.97937535994,-33409.0853821141,187500.0,9284.26644614535,-32003.875911697854,-11570.604034734253,-0.034,0.984,0.094,192.0,0.0,0.0,0.0,0.0,0.0,0.0,0.0,0.0,0.0,1676478080.844374,0.0
385,129.0,26352.12556745119,42896.104502213544,-37965.44378583953,-33437.04741442769,187500.0,9238.44537001197,-32033.111993445396,-11526.928726068583,-0.034,0.984,0.094,192.0,0.0,0.0,0.0,0.0,0.0,0.0,0.0,0.0,0.0,1676478080.844381,0.0
386,130.0,26242.57966787573,42816.755809397204,-38069.848784190275,-33471.08912123312,187500.0,9163.902302253522,-32513.026298645294,-12041.912918318858,-0.034,0.984,0.094,192.0,0.0,0.0,0.0,0.0,0.0,0.0,0.0,0.0,0.0,1676478080.844387,0.0
387,131.0,26228.945103757993,42789.30786720609,-38022.08310628928,-33443.596475553095,187500.0,9187.10341299813,-32503.035068873774,-12073.115953578468,-0.034,0.984,0.094,192.0,0.0,0.0,0.0,0.0,0.0,0.0,0.0,0.0,0.0,1676478080.844394,0.0
388,132.0,26332.724253263983,42860.60993201852,-37909.02798283434,-33405.17382683442,187500.0,9270.520123305336,-32058.14594723534,-11638.821558811851,-0.034,0.984,0.094,192.0,0.0,0.0,0.0,0.0,0.0,0.0,0.0,0.0,0.0,1676478080.8444,0.0
389,133.0,26371.616288616216,42904.82168255111,-37929.0998493552,-33425.46921079984,187500.0,9269.961329693953,-31957.093710552897,-11461.862797959186,-0.034,0.984,0.094,192.0,0.0,0.0,0.0,0.0,0.0,0.0,0.0,0.0,0.0,1676478080.903231,0.0
390,134.0,26257.845909338703,42828.04344034713,-38058.40469102916,-33476.29707769121,187500.0,9166.785677288255,-32444.8087745677,-11960.88784466837,-0.034,0.984,0.094,192.0,0.0,0.0,0.0,0.0,0.0,0.0,0.0,0.0,0.0,1676478080.903246,0.0
391,135.0,26214.19295241749,42779.361340923475,-38051.90033339266,-33459.645028072,187500.0,9178.654453594025,-32562.893040525087,-12113.192631386833,-0.034,0.984,0.094,192.0,0.0,0.0,0.0,0.0,0.0,0.0,0.0,0.0,0.0,1676478080.903254,0.0
392,136.0,26305.87980817316,42833.76548692769,-37947.83061120875,-33421.37884156452,187500.0,9256.25971034285,-32141.40619533136,-11720.383074329267,-0.03,0.98,0.09,192.0,255.0,16.0,30.0,160.0,2.0,208.0,0.0,0.0,0.0,1676478080.903263,0.0
393,137.0,26368.531747881385,42895.746874302255,-37940.76745996087,-33429.31371084615,187500.0,9272.755297750868,-31927.96938752763,-11439.756922692886,-0.03,0.98,0.09,192.0,0.0,0.0,0.0,0.0,0.0,0.0,0.0,0.0,0.0,1676478080.903271,0.0
394,138.0,26276.91194735908,42843.66730972139,-38058.449394518066,-33470.48562413283,187500.0,9190.232657221874,-32357.659322936455,-11867.926939478748,-0.03,0.98,0.09,192.0,0.0,0.0,0.0,0.0,0.0,0.0,0.0,0.0,0.0,1676478080.903278,0.0
395,139.0,26209.72260352643,42781.90943979138,-38068.641789989684,-33455.88993500351,187500.0,9182.945988529444,-32581.288526211803,-12130.090550195046,-0.03,0.98,0.09,192.0,0.0,0.0,0.0,0.0,0.0,0.0,0.0,0.0,0.0,1676478080.903286,0.0
396,140.0,26287.305508530797,42825.629451945955,-37961.04049218184,-33413.13104786051,187500.0,9248.905986417054,-32215.546931689612,-11795.641397910285,-0.03,0.98,0.09,192.0,0.0,0.0,0.0,0.0,0.0,0.0,0.0,0.0,0.0,1676478080.903294,0.0
397,141.0,26372.800931072346,42898.831415037086,-37924.227169063946,-33407.94544314688,187500.0,9279.617283298647,-31913.373698398318,-11433.096102845206,-0.03,0.98,0.09,192.0,0.0,0.0,0.0,0.0,0.0,0.0,0.0,0.0,0.0,1676478080.903301,0.0
398,142.0,26306.39389829563,42866.19786813234,-38034.48832446198,-33453.43124311343,187500.0,9213.05378831074,-32262.105615390017,-11758.693964325663,-0.03,0.98,0.09,192.0,0.0,0.0,0.0,0.0,0.0,0.0,0.0,0.0,0.0,1676478080.903309,0.0
399,143.0,26208.113277925644,42785.12809099294,-38082.008133173964,-33461.276705417244,187500.0,9177.62627334908,-32591.659735639067,-12130.06819845059,-0.03,0.98,0.09,192.0,0.0,0.0,0.0,0.0,0.0,0.0,0.0,0.0,0.0,1676478080.903317,0.0
400,144.0,26267.077179798747,42816.01820183018,-37980.79943428033,-33416.260292084255,187500.0,9240.412323524037,-32299.701249563845,-11876.130029693846,-0.03,0.98,0.09,192.0,0.0,0.0,0.0,0.0,0.0,0.0,0.0,0.0,0.0,1676478080.903325,0.0
401,145.0,26369.112893237223,42893.019961478705,-37912.201930546995,-33398.580062220106,187500.0,9294.660007317068,-31915.251244932562,-11449.88226293114,-0.03,0.98,0.09,192.0,0.0,0.0,0.0,0.0,0.0,0.0,0.0,0.0,0.0,1676478080.903332,0.0
402,146.0,26330.377320096177,42881.48646133977,-38008.69441136056,-33441.24954238529,187500.0,9218.507613957836,-32165.970762487745,-11661.575634667353,-0.028,0.978,0.088,192.0,255.0,32.0,30.0,144.0,2.0,192.0,0.0,0.0,0.0,1676478080.90334,0.0
403,147.0,26223.357167644164,42797.62271614346,-38077.56013602736,-33454.25825765828,187500.0,9168.327947655673,-32576.48290115391,-12106.040073161135,-0.028,0.978,0.088,192.0,0.0,0.0,0.0,0.0,0.0,0.0,0.0,0.0,0.0,1676478080.903348,0.0
404,148.0,26252.81676683626,42799.075579533055,-37994.054018742325,-33420.261254341756,187500.0,9227.224794295405,-32366.98000037432,-11932.568184443497,-0.028,0.978,0.088,192.0,0.0,0.0,0.0,0.0,0.0,0.0,0.0,0.0,0.0,1676478080.96351,0.0
405,149.0,26360.12749196619,42877.217278148804,-37906.72575315544,-33399.56353897614,187500.0,9283.640597300602,-31937.200657987676,-11486.874400004674,-0.028,0.978,0.088,192.0,0.0,0.0,0.0,0.0,0.0,0.0,0.0,0.0,0.0,1676478080.963522,0.0
406,150.0,26357.221765186998,42901.35716216054,-37975.256201655415,-33433.02410042573,187500.0,9239.294736301272,-32070.8193863415,-11563.160903830636,-0.028,0.978,0.088,192.0,0.0,0.0,0.0,0.0,0.0,0.0,0.0,0.0,0.0,1676478080.963537,0.0
407,151.0,26249.642819123605,42824.89184437893,-38071.70397898006,-33452.62658031304,187500.0,9178.989729760853,-32541.658883292544,-12066.835113386525,-0.028,0.978,0.088,192.0,0.0,0.0,0.0,0.0,0.0,0.0,0.0,0.0,0.0,1676478080.963544,0.0
408,152.0,26251.587420891217,42809.73736163823,-38016.83044634228,-33414.315690316645,187500.0,9221.726265159401,-32446.261637957294,-12005.054891712058,-0.028,0.978,0.088,192.0,0.0,0.0,0.0,0.0,0.0,0.0,0.0,0.0,0.0,1676478080.96355,0.0
409,153.0,26352.326733151287,42883.945153229855,-37923.534264985836,-33383.31382075713,187500.0,9284.109983934162,-32000.411391307283,-11553.706115926041,-0.028,0.978,0.088,192.0,0.0,0.0,0.0,0.0,0.0,0.0,0.0,0.0,0.0,1676478080.963557,0.0
410,154.0,26374.0749805063,42923.12776126001,-37975.189146422046,-33407.90073965797,187500.0,9262.697012745979,-32016.482295570648,-11492.12705995167,-0.028,0.978,0.088,192.0,0.0,0.0,0.0,0.0,0.0,0.0,0.0,0.0,0.0,1676478080.963563,0.0
411,155.0,26261.71276112947,42843.80142018812,-38086.45613032057,-33445.02698719823,187500.0,9188.086889754164,-32504.644394474555,-12007.46888011323,-0.028,0.978,0.088,192.0,0.0,0.0,0.0,0.0,0.0,0.0,0.0,0.0,0.0,1676478080.963569,0.0
412,156.0,26248.055845267278,42816.80051288611,-38041.90910362114,-33419.85892294156,187500.0,9213.97020983341,-32511.99811840035,-12060.017831327657,-0.034,0.978,0.08600000000000001,192.0,254.0,240.0,30.0,144.0,2.0,176.0,0.0,0.0,0.0,1676478080.963576,0.0
413,157.0,26342.044930701846,42877.53020257118,-37937.10177387021,-33391.85218713906,187500.0,9271.593007039191,-32069.075950273986,-11636.273459943946,-0.034,0.978,0.08600000000000001,192.0,0.0,0.0,0.0,0.0,0.0,0.0,0.0,0.0,0.0,1676478080.963582,0.0
414,158.0,26388.31304172433,42925.92172931692,-37950.736337987946,-33406.38082103501,187500.0,9269.223722126928,-31963.888640867313,-11456.274861845359,-0.034,0.978,0.08600000000000001,192.0,0.0,0.0,0.0,0.0,0.0,0.0,0.0,0.0,0.0,1676478080.963589,0.0
415,159.0,26283.39395325112,42854.30674008212,-38070.45228129057,-33451.10666169008,187500.0,9189.740918843856,-32441.590123366135,-11941.575937458985,-0.034,0.978,0.08600000000000001,192.0,0.0,0.0,0.0,0.0,0.0,0.0,0.0,0.0,0.0,1676478080.963595,0.0
416,160.0,26234.689502083005,42800.08140803354,-38058.181173584606,-33433.04645217019,187500.0,9189.316235699205,-32560.434348635,-12099.312198080088,-0.034,0.978,0.08600000000000001,192.0,0.0,0.0,0.0,0.0,0.0,0.0,0.0,0.0,0.0,1676478080.963602,0.0
417,161.0,26326.912799705602,42860.22995236277,-37945.77425071887,-33389.86288188254,187500.0,9268.731983748912,-32140.042738919587,-11706.301475322423,-0.034,0.978,0.08600000000000001,192.0,0.0,0.0,0.0,0.0,0.0,0.0,0.0,0.0,0.0,1676478080.963608,0.0
418,162.0,26395.040916805377,42924.491217671784,-37932.74318370142,-33392.81331215064,187500.0,9280.578408310224,-31918.402840900762,-11417.002846837384,-0.034,0.978,0.08600000000000001,192.0,0.0,0.0,0.0,0.0,0.0,0.0,0.0,0.0,0.0,1676478080.963615,0.0
419,163.0,26303.175247094066,42869.37181584499,-38050.425118258616,-33437.87442897254,187500.0,9197.876953825587,-32336.961607570844,-11834.019343140048,-0.034,0.978,0.08600000000000001,192.0,0.0,0.0,0.0,0.0,0.0,0.0,0.0,0.0,0.0,1676478081.022535,0.0
420,164.0,26231.180278203523,42803.9035563354,-38070.07230163483,-33433.80641148167,187500.0,9190.523229899793,-32581.02030527834,-12117.573573300073,-0.034,0.978,0.08600000000000001,192.0,0.0,0.0,0.0,0.0,0.0,0.0,0.0,0.0,0.0,1676478081.022549,0.0
421,165.0,26304.941034906034,42842.23679807625,-37967.38838760715,-33399.340021531585,187500.0,9246.201425337962,-32229.13679231844,-11802.324569502422,-0.034,0.978,0.08600000000000001,192.0,0.0,0.0,0.0,0.0,0.0,0.0,0.0,0.0,0.0,1676478081.022557,0.0
422,166.0,26387.37426845721,42913.024772766206,-37924.584796975236,-33391.025172594214,187500.0,9277.337405364206,-31910.825599530413,-11429.586878965722,-0.038,0.976,0.082,192.0,254.0,208.0,30.0,128.0,2.0,144.0,0.0,0.0,0.0,1676478081.022565,0.0
423,167.0,26323.716500248494,42883.00637996273,-38031.604949427245,-33433.89581845949,187500.0,9210.7739103763,-32244.894772159434,-11736.27516463699,-0.038,0.976,0.082,192.0,0.0,0.0,0.0,0.0,0.0,0.0,0.0,0.0,0.0,1676478081.022572,0.0
424,168.0,26234.220115449443,42806.42930345885,-38074.63205750371,-33436.68978651641,187500.0,9184.085927496664,-32582.093189012194,-12116.120709910478,-0.038,0.976,0.082,192.0,0.0,0.0,0.0,0.0,0.0,0.0,0.0,0.0,0.0,1676478081.022579,0.0
425,169.0,26283.036325339835,42823.9083676229,-37979.883012757666,-33399.72000118733,187500.0,9243.653326470057,-32298.76247629672,-11868.575140067953,-0.038,0.976,0.082,192.0,0.0,0.0,0.0,0.0,0.0,0.0,0.0,0.0,0.0,1676478081.022587,0.0
426,170.0,26383.79798934436,42900.48544412678,-37912.2466340359,-33386.66658242543,187500.0,9286.881600246621,-31905.84116051688,-11437.812320925275,-0.038,0.976,0.082,192.0,0.0,0.0,0.0,0.0,0.0,0.0,0.0,0.0,0.0,1676478081.022594,0.0
427,171.0,26345.84472725925,42889.28722015467,-38008.58265263828,-33432.64412077,187500.0,9216.652419168046,-32150.436300091304,-11634.887651787718,-0.038,0.976,0.082,192.0,0.0,0.0,0.0,0.0,0.0,0.0,0.0,0.0,0.0,1676478081.022608,0.0
428,172.0,26228.90040026908,42802.003658056696,-38079.6388482617,-33444.647007542495,187500.0,9170.451363378927,-32577.131101743118,-12099.401605057908,-0.038,0.976,0.082,192.0,0.0,0.0,0.0,0.0,0.0,0.0,0.0,0.0,0.0,1676478081.022615,0.0
429,173.0,26251.274496468843,42804.7529226247,-37998.30085018883,-33409.063030369645,187500.0,9223.849680882655,-32380.011067391762,-11942.179434559279,-0.038,0.976,0.082,192.0,0.0,0.0,0.0,0.0,0.0,0.0,0.0,0.0,0.0,1676478081.022622,0.0
430,174.0,26357.713503565017,42882.44758635135,-37912.11252356917,-33388.18650104839,187500.0,9281.293664132794,-31943.816774346447,-11489.534257594856,-0.038,0.976,0.082,192.0,0.0,0.0,0.0,0.0,0.0,0.0,0.0,0.0,0.0,1676478081.022629,0.0
431,175.0,26344.391863869652,42891.075359711096,-37984.621582582186,-33425.84919045558,187500.0,9238.668887456524,-32061.16343273681,-11546.978240844994,-0.038,0.976,0.082,192.0,0.0,0.0,0.0,0.0,0.0,0.0,0.0,0.0,0.0,1676478081.022636,0.0
432,176.0,26216.09285069619,42797.84623358801,-38092.93813621261,-33463.042493229215,187500.0,9161.845941763633,-32544.25168564936,-12061.805970884083,-0.036000000000000004,0.972,0.094,192.0,254.0,224.0,30.0,96.0,2.0,240.0,0.0,0.0,0.0,1676478081.022644,0.0
433,177.0,26228.274551424332,42790.76073059568,-38033.19192328357,-33431.03479516921,187500.0,9204.805994606733,-32463.360722465604,-12022.131624475913,-0.036000000000000004,0.972,0.094,192.0,0.0,0.0,0.0,0.0,0.0,0.0,0.0,0.0,0.0,1676478081.022651,0.0
434,178.0,26329.192677640043,42857.99477791724,-37934.41956453557,-33400.36820177653,187500.0,9266.854437214666,-32016.728164759657,-11567.430087021601,-0.036000000000000004,0.972,0.094,192.0,0.0,0.0,0.0,0.0,0.0,0.0,0.0,0.0,0.0,1676478081.085485,0.0
435,179.0,26343.74366328045,42887.47672885379,-37981.55939359181,-33428.017309667746,187500.0,9243.698029958967,-32013.33069960245,-11485.868571504185,-0.036000000000000004,0.972,0.094,192.0,0.0,0.0,0.0,0.0,0.0,0.0,0.0,0.0,0.0,1676478081.085498,0.0
436,180.0,26234.108356727167,42811.34668723902,-38094.234537391014,-33464.11537696307,187500.0,9165.042241220743,-32506.723106708898,-12010.352255147965,-0.036000000000000004,0.972,0.094,192.0,0.0,0.0,0.0,0.0,0.0,0.0,0.0,0.0,0.0,1676478081.085505,0.0
437,181.0,26212.47186809443,42778.154346722884,-38058.382339284704,-33437.00271093878,187500.0,9190.612636877613,-32532.15939189904,-12073.2500640452,-0.036000000000000004,0.972,0.094,192.0,0.0,0.0,0.0,0.0,0.0,0.0,0.0,0.0,0.0,1676478081.085511,0.0
438,182.0,26304.87397967267,42838.928739896866,-37955.407852579105,-33402.46926575533,187500.0,9263.993413924387,-32096.456837231737,-11643.917756547662,-0.036000000000000004,0.972,0.094,192.0,0.0,0.0,0.0,0.0,0.0,0.0,0.0,0.0,0.0,1676478081.085518,0.0
439,183.0,26355.858308775227,42894.8751562685,-37966.874297484675,-33412.415792037944,187500.0,9248.838931183689,-31967.017885091056,-11434.861890657174,-0.036000000000000004,0.972,0.094,192.0,0.0,0.0,0.0,0.0,0.0,0.0,0.0,0.0,0.0,1676478081.085527,0.0
440,184.0,26250.089854012713,42826.07648683507,-38093.58633680181,-33462.148423451,187500.0,9153.799313759722,-32436.51627737478,-11921.437015704754,-0.036000000000000004,0.972,0.094,192.0,0.0,0.0,0.0,0.0,0.0,0.0,0.0,0.0,0.0,1676478081.085533,0.0
441,185.0,26202.2347691339,42774.37690190994,-38084.6903425086,-33442.680054030425,187500.0,9160.080153951663,-32587.099979770184,-12112.767948242183,-0.036000000000000004,0.972,0.098,192.0,254.0,224.0,30.0,96.0,3.0,16.0,0.0,0.0,0.0,1676478081.08554,0.0
442,186.0,26291.52998823285,42825.651803690416,-37971.16583242009,-33401.23991981029,187500.0,9234.556166476747,-32176.36432365946,-11731.89422272375,-0.036000000000000004,0.972,0.098,192.0,0.0,0.0,0.0,0.0,0.0,0.0,0.0,0.0,0.0,1676478081.085546,0.0
443,187.0,26364.150805968144,42892.68468531188,-37947.920018186574,-33401.12816108801,187500.0,9257.26553884334,-31926.65063460477,-11419.729759660931,-0.036000000000000004,0.972,0.098,192.0,0.0,0.0,0.0,0.0,0.0,0.0,0.0,0.0,0.0,1676478081.085552,0.0
444,188.0,26280.62233693866,42846.97536790078,-38059.365816040736,-33438.47792607283,187500.0,9189.316235699205,-32332.245389490774,-11815.847374897883,-0.036000000000000004,0.972,0.098,192.0,0.0,0.0,0.0,0.0,0.0,0.0,0.0,0.0,0.0,1676478081.085558,0.0
445,189.0,26208.180333159013,42785.12809099294,-38081.42698781812,-33428.2408271123,187500.0,9178.609750105114,-32586.854110581175,-12107.314122595088,-0.036000000000000004,0.972,0.098,192.0,0.0,0.0,0.0,0.0,0.0,0.0,0.0,0.0,0.0,1676478081.085565,0.0
446,190.0,26277.91777585957,42822.8578356335,-37981.29117265835,-33391.583966205595,187500.0,9239.831178168199,-32239.28448430115,-11790.589903663385,-0.036000000000000004,0.972,0.098,192.0,0.0,0.0,0.0,0.0,0.0,0.0,0.0,0.0,0.0,1676478081.085571,0.0
447,191.0,26372.398599672153,42899.56902260411,-37933.9054744131,-33381.12334980051,187500.0,9281.003091454875,-31908.25514891805,-11407.950390332984,-0.036000000000000004,0.972,0.098,192.0,0.0,0.0,0.0,0.0,0.0,0.0,0.0,0.0,0.0,1676478081.085577,0.0
448,192.0,26315.893389689136,42873.97627520279,-38038.5786936973,-33427.302053845175,187500.0,9209.209288264428,-32229.56147546309,-11705.69797822213,-0.036000000000000004,0.972,0.098,192.0,0.0,0.0,0.0,0.0,0.0,0.0,0.0,0.0,0.0,1676478081.08559,0.0
449,193.0,26229.03451073581,42802.361285967985,-38081.941077940595,-33426.45268755587,187500.0,9179.05678499422,-32583.188424490505,-12101.72618648126,-0.036000000000000004,0.972,0.098,192.0,0.0,0.0,0.0,0.0,0.0,0.0,0.0,0.0,0.0,1676478081.142848,0.0
450,194.0,26279.14712180461,42824.33305076755,-37987.88493727266,-33386.15249230296,187500.0,9242.178111336007,-32308.463133390327,-11859.209759141178,-0.036000000000000004,0.972,0.098,192.0,0.0,0.0,0.0,0.0,0.0,0.0,0.0,0.0,0.0,1676478081.14286,0.0
451,195.0,26373.426779917096,42896.171557446905,-37920.092096339715,-33374.61899216402,187500.0,9287.730966535923,-31913.351346653864,-11423.440149240512,-0.04,0.972,0.092,192.0,254.0,192.0,30.0,96.0,2.0,224.0,0.0,0.0,0.0,1676478081.142867,0.0
452,196.0,26340.145032423145,42891.85767076703,-38011.4213241841,-33412.12521936002,187500.0,9230.39874200806,-32136.64527376238,-11596.688520513597,-0.04,0.972,0.092,192.0,0.0,0.0,0.0,0.0,0.0,0.0,0.0,0.0,0.0,1676478081.142873,0.0
453,197.0,26234.309522427266,42812.08429480604,-38091.32881061183,-33427.32440558963,187500.0,9184.242389707852,-32573.06308425225,-12069.807895399083,-0.04,0.972,0.092,192.0,0.0,0.0,0.0,0.0,0.0,0.0,0.0,0.0,0.0,1676478081.14288,0.0
454,198.0,26261.15396751809,42813.268937262175,-38016.785742853375,-33392.2321667948,187500.0,9240.412323524037,-32393.757390231778,-11925.035646562059,-0.04,0.972,0.092,192.0,0.0,0.0,0.0,0.0,0.0,0.0,0.0,0.0,0.0,1676478081.142886,0.0
455,199.0,26364.46373039052,42889.44368236586,-37928.36224178818,-33367.44408219386,187500.0,9301.142013209106,-31954.724425640637,-11468.881245718152,-0.04,0.972,0.092,192.0,0.0,0.0,0.0,0.0,0.0,0.0,0.0,0.0,0.0,1676478081.142892,0.0
456,200.0,26366.98947751397,42912.667144854924,-37989.09193147325,-33395.8307976521,187500.0,9263.032288912807,-32057.788319324056,-11509.002627015429,-0.04,0.972,0.092,192.0,0.0,0.0,0.0,0.0,0.0,0.0,0.0,0.0,0.0,1676478081.142899,0.0
457,201.0,26256.48245292693,42831.932643882355,-38084.06449366385,-33418.629576996515,187500.0,9189.740918843856,-32533.16522039953,-12020.946982019781,-0.04,0.972,0.092,192.0,0.0,0.0,0.0,0.0,0.0,0.0,0.0,0.0,0.0,1676478081.142905,0.0
458,202.0,26253.800243592294,42813.827730873556,-38031.6273011717,-33392.45568423935,187500.0,9221.368637248115,-32463.71835037689,-11986.726461258706,-0.04,0.972,0.092,192.0,0.0,0.0,0.0,0.0,0.0,0.0,0.0,0.0,0.0,1676478081.142911,0.0
459,203.0,26356.26064017542,42884.638057307966,-37927.55757898779,-33361.83379433558,187500.0,9287.663911302556,-32015.744688003626,-11537.635211662677,-0.04,0.972,0.092,192.0,0.0,0.0,0.0,0.0,0.0,0.0,0.0,0.0,0.0,1676478081.142917,0.0
460,204.0,26385.65318413415,42922.21133973734,-37965.242620139434,-33381.45862596734,187500.0,9269.78251573831,-31995.359897060385,-11444.227271583948,-0.04,0.972,0.092,192.0,0.0,0.0,0.0,0.0,0.0,0.0,0.0,0.0,0.0,1676478081.142924,0.0
461,205.0,26272.933336846036,42840.85098992002,-38079.88471745071,-33418.89779792998,187500.0,9189.875029310588,-32470.46857720239,-11957.713896955716,-0.036000000000000004,0.976,0.092,192.0,254.0,224.0,30.0,128.0,2.0,224.0,0.0,0.0,0.0,1676478081.14293,0.0
462,206.0,26248.86050806767,42804.9540883248,-38041.70793792104,-33388.38766674849,187500.0,9221.972134348409,-32498.654126960533,-12029.798272824082,-0.036000000000000004,0.976,0.092,192.0,0.0,0.0,0.0,0.0,0.0,0.0,0.0,0.0,0.0,1676478081.142936,0.0
463,207.0,26345.755320281427,42869.55062980064,-37928.71986969947,-33351.41788141941,187500.0,9295.665835817557,-32052.11097623241,-11602.924657216628,-0.036000000000000004,0.976,0.092,192.0,0.0,0.0,0.0,0.0,0.0,0.0,0.0,0.0,0.0,1676478081.142943,0.0
464,208.0,26398.147809284666,42925.38528744999,-37936.72179421446,-33363.24195423626,187500.0,9296.828126529232,-31907.47283786212,-11379.451916152468,-0.036000000000000004,0.976,0.092,192.0,0.0,0.0,0.0,0.0,0.0,0.0,0.0,0.0,0.0,1676478081.203262,0.0
465,209.0,26301.521218004375,42864.70030125383,-38052.86145840424,-33406.067896612636,187500.0,9211.399759221049,-32370.064541109154,-11849.084418902925,-0.036000000000000004,0.976,0.092,192.0,0.0,0.0,0.0,0.0,0.0,0.0,0.0,0.0,0.0,1676478081.203275,0.0
466,210.0,26249.57576389024,42812.26310876168,-38039.517466964426,-33391.31574527213,187500.0,9206.7729481188,-32523.308101094735,-12049.91484283386,-0.036000000000000004,0.976,0.092,192.0,0.0,0.0,0.0,0.0,0.0,0.0,0.0,0.0,0.0,1676478081.203282,0.0
467,211.0,26332.724253263983,42861.39224307445,-37927.64698596561,-33353.474241909295,187500.0,9278.857323987166,-32120.104982865454,-11673.69028016213,-0.036000000000000004,0.976,0.092,192.0,0.0,0.0,0.0,0.0,0.0,0.0,0.0,0.0,0.0,1676478081.203288,0.0
468,212.0,26411.782373402402,42936.516456188736,-37902.25540426438,-33348.6239133625,187500.0,9320.36451344067,-31865.585668752872,-11342.772703501309,-0.036000000000000004,0.976,0.092,192.0,0.0,0.0,0.0,0.0,0.0,0.0,0.0,0.0,0.0,1676478081.203295,0.0
469,213.0,26324.45410781552,42885.755644530735,-38024.273577245905,-33400.41290526544,187500.0,9239.741771190378,-32265.413673569405,-11736.610440803819,-0.036000000000000004,0.976,0.092,192.0,0.0,0.0,0.0,0.0,0.0,0.0,0.0,0.0,0.0,1676478081.203301,1.0
470,214.0,26243.71960684295,42817.024030330664,-38048.90519963565,-33394.109713329046,187500.0,9214.81957612271,-32535.3780431006,-12050.764209123161,-0.036000000000000004,0.976,0.092,192.0,0.0,0.0,0.0,0.0,0.0,0.0,0.0,0.0,0.0,1676478081.203314,1.0
471,215.0,26309.97017740848,42852.29508308114,-37949.0599571538,-33355.64236112146,187500.0,9272.420021584037,-32202.627623394448,-11750.13324619928,-0.032,0.976,0.096,192.0,255.0,0.0,30.0,128.0,3.0,0.0,0.0,0.0,0.0,1676478081.203321,1.0
472,216.0,26395.107972038746,42920.80317983666,-37908.357430500684,-33353.831869820584,187500.0,9310.216821457961,-31872.425302556196,-11361.905796755053,-0.032,0.976,0.096,192.0,0.0,0.0,0.0,0.0,0.0,0.0,0.0,0.0,0.0,1676478081.203327,1.0
473,217.0,26336.278180632376,42896.08215046908,-38018.08214403178,-33402.24574831078,187500.0,9235.316125788228,-32189.909480799375,-11651.87497757375,-0.032,0.976,0.096,192.0,0.0,0.0,0.0,0.0,0.0,0.0,0.0,0.0,0.0,1676478081.203333,1.0
474,218.0,26238.33283642922,42817.78398964214,-38068.41827254513,-33410.00180363677,187500.0,9205.409491707027,-32555.5840200882,-12064.57758719654,-0.032,0.976,0.096,192.0,0.0,0.0,0.0,0.0,0.0,0.0,0.0,0.0,0.0,1676478081.203339,1.0
475,219.0,26277.78366539284,42828.937510125346,-37981.24646916944,-33377.90469859895,187500.0,9258.740753977389,-32299.924767008397,-11847.832721213428,-0.032,0.976,0.096,192.0,0.0,0.0,0.0,0.0,0.0,0.0,0.0,0.0,0.0,1676478081.203346,1.0
476,220.0,26378.366515441718,42902.65356333894,-37911.73254391343,-33361.587925146574,187500.0,9306.327617922738,-31900.722611036614,-11411.459614212468,-0.032,0.976,0.096,192.0,0.0,0.0,0.0,0.0,0.0,0.0,0.0,0.0,0.0,1676478081.203352,1.0
477,221.0,26350.806814528325,42899.881947026486,-38000.51367288991,-33401.97752737731,187500.0,9242.87101541412,-32111.11958159442,-11567.877121910708,-0.032,0.976,0.096,192.0,0.0,0.0,0.0,0.0,0.0,0.0,0.0,0.0,0.0,1676478081.203358,1.0
478,222.0,26241.685598097516,42814.90061460741,-38084.8915082087,-33421.647062497985,187500.0,9180.733165828367,-32558.310932911747,-12051.546520179096,-0.032,0.976,0.096,192.0,0.0,0.0,0.0,0.0,0.0,0.0,0.0,0.0,0.0,1676478081.203364,1.0
479,223.0,26262.67388614105,42811.81607387258,-38015.75756260843,-33389.32644001561,187500.0,9228.230622795894,-32396.484303055324,-11921.191146515745,-0.032,0.976,0.096,192.0,0.0,0.0,0.0,0.0,0.0,0.0,0.0,0.0,0.0,1676478081.263862,1.0
480,224.0,26363.726122823493,42881.73233052878,-37928.697517955006,-33363.89015482547,187500.0,9287.842725258199,-31956.490213452606,-11460.07465840276,-0.032,0.976,0.096,192.0,0.0,0.0,0.0,0.0,0.0,0.0,0.0,0.0,0.0,1676478081.263875,0.0
481,225.0,26357.802910542836,42898.16086270343,-37993.85285304223,-33399.92116688743,187500.0,9244.972079392921,-32046.098356973933,-11488.148449438626,-0.032,0.984,0.098,192.0,255.0,0.0,30.0,192.0,3.0,16.0,0.0,0.0,0.0,1676478081.263882,0.0
482,226.0,26232.47667938193,42806.18343426984,-38098.369610115245,-33437.18152489442,187500.0,9170.116087212096,-32532.785240743786,-12012.98976099369,-0.032,0.984,0.098,192.0,0.0,0.0,0.0,0.0,0.0,0.0,0.0,0.0,0.0,1676478081.263889,0.0
483,227.0,26227.782813046317,42782.33412293603,-38040.00920534244,-33406.73844894629,187500.0,9215.423073223004,-32468.94865857943,-11990.79447874957,-0.032,0.984,0.098,192.0,0.0,0.0,0.0,0.0,0.0,0.0,0.0,0.0,0.0,1676478081.263895,0.0
484,228.0,26330.10909916271,42848.60704524601,-37929.971567388966,-33373.76962587472,187500.0,9287.619207813646,-32005.194664620718,-11534.014229060916,-0.032,0.984,0.098,192.0,0.0,0.0,0.0,0.0,0.0,0.0,0.0,0.0,0.0,1676478081.263901,0.0
485,229.0,26357.244116931455,42889.890717254966,-37964.8626404837,-33397.32836453061,187500.0,9258.517236532836,-31966.727312413135,-11423.417797496057,-0.032,0.984,0.098,192.0,0.0,0.0,0.0,0.0,0.0,0.0,0.0,0.0,0.0,1676478081.263907,0.0
486,230.0,26241.484432397418,42811.63725991693,-38080.64467676219,-33438.075594672635,187500.0,9174.519380869791,-32460.32088521968,-11940.950088614236,-0.032,0.984,0.098,192.0,0.0,0.0,0.0,0.0,0.0,0.0,0.0,0.0,0.0,1676478081.263914,0.0
487,231.0,26206.392193602587,42764.65389307188,-38047.56409496833,-33413.30986181615,187500.0,9200.514459671314,-32510.500551521847,-12032.413426925354,-0.032,0.984,0.098,192.0,0.0,0.0,0.0,0.0,0.0,0.0,0.0,0.0,0.0,1676478081.26392,0.0
488,232.0,26292.558168477797,42816.48758846374,-37937.146477359114,-33379.5810794331,187500.0,9264.820428469233,-32076.429674199782,-11619.688465558109,-0.032,0.984,0.098,192.0,0.0,0.0,0.0,0.0,0.0,0.0,0.0,0.0,0.0,1676478081.263926,0.0
489,233.0,26341.776709768383,42867.69543501084,-37942.60030300621,-33399.272966298224,187500.0,9254.940957419987,-31920.906236279756,-11402.429509452524,-0.032,0.984,0.098,192.0,0.0,0.0,0.0,0.0,0.0,0.0,0.0,0.0,0.0,1676478081.263933,0.0
490,234.0,26236.790566061805,42805.44582670282,-38060.550458496866,-33441.27189412974,187500.0,9173.446497135938,-32376.12186385654,-11868.798657512505,-0.032,0.984,0.098,192.0,0.0,0.0,0.0,0.0,0.0,0.0,0.0,0.0,0.0,1676478081.263939,0.0
491,235.0,26168.729504195395,42740.625767782425,-38055.56601948333,-33422.89876018748,187500.0,9186.00817751982,-32541.837697248186,-12075.90992163538,-0.028,0.986,0.10400000000000001,192.0,255.0,32.0,30.0,208.0,3.0,64.0,0.0,0.0,0.0,1676478081.263952,0.0
492,236.0,26234.75655731637,42771.8958582754,-37957.62067528018,-33397.887158141995,187500.0,9244.346230548172,-32159.488756595703,-11728.742626755551,-0.028,0.986,0.10400000000000001,192.0,0.0,0.0,0.0,0.0,0.0,0.0,0.0,0.0,0.0,1676478081.263958,0.0
493,237.0,26297.699069702518,42837.09589685153,-37933.27962556835,-33399.36237327604,187500.0,9268.776687237822,-31899.78383776949,-11406.11754728765,-0.028,0.986,0.10400000000000001,192.0,0.0,0.0,0.0,0.0,0.0,0.0,0.0,0.0,0.0,1676478081.263965,0.0
494,238.0,26202.592397045184,42777.86377404496,-38053.64376946018,-33449.273818644746,187500.0,9192.959570045421,-32295.521473350702,-11787.95239781766,-0.028,0.986,0.10400000000000001,192.0,0.0,0.0,0.0,0.0,0.0,0.0,0.0,0.0,0.0,1676478081.323817,0.0
495,239.0,26114.97355878038,42700.996124863166,-38082.499871551976,-33447.932713977425,187500.0,9175.681671581468,-32578.49455815489,-12108.29759935112,-0.028,0.986,0.10400000000000001,192.0,0.0,0.0,0.0,0.0,0.0,0.0,0.0,0.0,0.0,1676478081.32383,0.0
496,240.0,26159.23001280189,42723.16905536283,-37987.12497796118,-33413.689841471896,187500.0,9237.819521167221,-32255.333036820062,-11824.117520346346,-0.028,0.986,0.10400000000000001,192.0,0.0,0.0,0.0,0.0,0.0,0.0,0.0,0.0,0.0,1676478081.323837,0.0
497,241.0,26232.074347981736,42778.69078858981,-37931.290320311826,-33405.73262044581,187500.0,9279.46082108746,-31900.65555580325,-11431.956163877985,-0.028,0.986,0.10400000000000001,192.0,0.0,0.0,0.0,0.0,0.0,0.0,0.0,0.0,0.0,1676478081.323843,0.0
498,242.0,26162.135739581077,42735.14959039087,-38040.79151639838,-33461.25435367279,187500.0,9202.168488761006,-32201.957071060788,-11704.066300876893,-0.028,0.986,0.10400000000000001,192.0,0.0,0.0,0.0,0.0,0.0,0.0,0.0,0.0,0.0,1676478081.32385,0.0
499,243.0,26047.694807969907,42645.541446869545,-38105.45511310758,-33475.51476663527,187500.0,9163.991709231343,-32589.82689259373,-12126.760140271204,-0.028,0.986,0.10400000000000001,192.0,0.0,0.0,0.0,0.0,0.0,0.0,0.0,0.0,0.0,1676478081.323856,0.0
