,packet,eeg1,eeg2,eeg3,eeg4,eeg5,eeg6,eeg7,eeg8,accel1,accel2,accel3,other1,other2,other3,other4,other5,other6,other7,analog1,analog2,analog3,timestamp,marker
0,0.0,0.0,0.0,0.0,0.0,0.0,0.0,0.0,0.0,0.0,0.0,0.0,192.0,0.0,0.0,0.0,0.0,0.0,0.0,0.0,0.0,0.0,1676477803.937678,0
1,1.0,21487.380145475883,36078.80009160043,-44543.53982729195,-39773.40933959596,175268.92426835588,7448.674136242168,-43189.35938946717,-17306.866324766437,-0.048,0.976,0.078,192.0,254.0,128.0,30.0,128.0,2.0,112.0,0.0,0.0,0.0,1676477803.995888,0
2,2.0,21366.300745761484,35981.19002356411,-44644.6367674633,-39805.34998242259,175177.08095038903,7386.7821558454225,-43674.124023213866,-17802.315092362773,-0.048,0.976,0.078,192.0,0.0,0.0,0.0,0.0,0.0,0.0,0.0,0.0,0.0,1676477803.995926,0
3,3.0,21303.067660697423,35888.58674628577,-44640.769915672536,-39800.9913922538,175192.99539244123,7387.497411667992,-43758.83713469948,-17917.471279796515,-0.048,0.976,0.078,192.0,0.0,0.0,0.0,0.0,0.0,0.0,0.0,0.0,0.0,1676477803.995954,0
4,4.0,21381.9469668802,35939.81694457733,-44566.0703857029,-39793.07887471663,175263.0681113086,7418.745150416512,-43357.19863858207,-17547.43815033891,-0.048,0.976,0.078,192.0,0.0,0.0,0.0,0.0,0.0,0.0,0.0,0.0,0.0,1676477803.995979,0
5,5.0,21440.888517008843,36022.339585106325,-44583.19182195566,-39820.45976167438,175225.33836666803,7404.305923498384,-43203.66450591857,-17322.311380185056,-0.048,0.976,0.078,192.0,0.0,0.0,0.0,0.0,0.0,0.0,0.0,0.0,0.0,1676477803.996004,0
6,6.0,21317.238666682086,35936.37477593122,-44707.668686827266,-39870.97470414337,175100.2356529517,7320.956268424544,-43667.86553476638,-17773.74956294889,-0.048,0.976,0.078,192.0,0.0,0.0,0.0,0.0,0.0,0.0,0.0,0.0,0.0,1676477803.996029,0
7,7.0,21233.129052296765,35830.24869325742,-44717.39169566533,-39865.72204419637,175102.40377216385,7316.798843955857,-43860.425813248854,-18001.446783715106,-0.048,0.976,0.078,192.0,0.0,0.0,0.0,0.0,0.0,0.0,0.0,0.0,0.0,1676477803.996053,0
8,8.0,21302.464163597127,35864.33510355176,-44635.89723538128,-39851.84161088963,175188.88267146144,7351.287585650395,-43490.03505587996,-17674.351355356142,-0.048,0.974,0.068,192.0,254.0,128.0,30.0,112.0,2.0,32.0,0.0,0.0,0.0,1676477803.996078,0
9,9.0,21377.789542411512,35953.04917729487,-44628.811732388946,-39872.02523613277,175194.2023866418,7349.655908305158,-43233.59349174422,-17365.651412683896,-0.048,0.974,0.068,192.0,0.0,0.0,0.0,0.0,0.0,0.0,0.0,0.0,0.0,1676477803.996102,0
10,10.0,21293.657576281737,35901.7742755144,-44740.74926862112,-39919.81326577822,175093.06074298153,7274.777564379879,-43626.13482786832,-17730.521289172328,-0.048,0.974,0.068,192.0,0.0,0.0,0.0,0.0,0.0,0.0,0.0,0.0,0.0,1676477803.996127,0
11,11.0,21191.75597330999,35788.070951470254,-44775.19330682675,-39918.53921634427,175076.98983871817,7261.76884910689,-43932.17491295039,-18064.881034479266,-0.048,0.974,0.068,192.0,0.0,0.0,0.0,0.0,0.0,0.0,0.0,0.0,0.0,1676477803.996152,0
12,12.0,21235.408930231206,35798.196291708504,-44704.092407714415,-39905.597556304645,175154.05865360008,7299.699759447546,-43626.58186275743,-17800.504601061893,-0.048,0.974,0.068,192.0,0.0,0.0,0.0,0.0,0.0,0.0,0.0,0.0,0.0,1676477803.996177,0
13,13.0,21320.613780094838,35888.251470118936,-44679.72900625813,-39926.69760307045,175171.8059386976,7305.868840917211,-43293.89849828464,-17427.96807622529,-0.048,0.974,0.068,192.0,0.0,0.0,0.0,0.0,0.0,0.0,0.0,0.0,0.0,1676477803.996201,0
14,14.0,21258.833558420367,35872.42643504458,-44779.954228395734,-39970.52937394731,175060.98598968817,7242.836921553246,-43595.17766179772,-17680.49808508135,-0.048,0.974,0.068,192.0,0.0,0.0,0.0,0.0,0.0,0.0,0.0,0.0,0.0,1676477803.996226,0
15,15.0,21135.65309472717,35749.67065449603,-44841.600339603465,-39979.268906029334,175008.88407336286,7213.623191550159,-43990.37885551201,-18097.335767428372,-0.048,0.974,0.068,192.0,0.0,0.0,0.0,0.0,0.0,0.0,0.0,0.0,0.0,1676477803.996251,0
16,16.0,21167.593737553805,35743.8368491932,-44773.651036459334,-39956.29131272928,175092.41254239233,7255.19743623703,-43763.19572486827,-17912.755061716445,-0.048,0.974,0.068,192.0,0.0,0.0,0.0,0.0,0.0,0.0,0.0,0.0,0.0,1676477804.056126,0
17,17.0,21273.608061505325,35842.65391143011,-44715.201224708704,-39957.52065867432,175153.1422320774,7283.092413317253,-43356.304568803855,-17494.17394330191,-0.048,0.974,0.068,192.0,0.0,0.0,0.0,0.0,0.0,0.0,0.0,0.0,0.0,1676477804.056167,0
18,18.0,21254.9667066296,35863.798661684836,-44792.00181865714,-39994.22222306993,175077.1239491849,7227.503624856905,-43533.41979186771,-17611.72176739237,-0.058,0.976,0.07,192.0,254.0,48.0,30.0,128.0,2.0,48.0,0.0,0.0,0.0,1676477804.056199,0
19,19.0,21133.440272026095,35749.7377097294,-44864.80145034807,-39999.65369697258,175008.63820417385,7190.533839527827,-43983.94155310888,-18086.271653922995,-0.058,0.976,0.07,192.0,0.0,0.0,0.0,0.0,0.0,0.0,0.0,0.0,0.0,1676477804.05623,0
20,20.0,21143.27503958643,35724.27907279481,-44803.55767054053,-39969.47884195791,175083.06951321,7231.884566770144,-43844.6007781745,-17984.884141073722,-0.058,0.976,0.07,192.0,0.0,0.0,0.0,0.0,0.0,0.0,0.0,0.0,0.0,1676477804.056259,0
21,21.0,21254.02793336248,35819.542207663326,-44726.108876002894,-39958.504135430354,175159.75834843618,7269.100221288231,-43405.053723460886,-17548.779255006226,-0.058,0.976,0.07,192.0,0.0,0.0,0.0,0.0,0.0,0.0,0.0,0.0,0.0,1676477804.056288,0
22,22.0,21269.78591320347,35873.52167052289,-44776.82498417199,-39986.35440902167,175106.69530709926,7235.237328438441,-43462.11772705528,-17532.976571676325,-0.058,0.976,0.07,192.0,0.0,0.0,0.0,0.0,0.0,0.0,0.0,0.0,0.0,1676477804.056333,0
23,23.0,21156.57432753734,35776.85037575369,-44857.58183688901,-39996.412694026556,175032.80043993003,7194.400691318595,-43932.13020946148,-18023.217382814575,-0.058,0.976,0.07,192.0,0.0,0.0,0.0,0.0,0.0,0.0,0.0,0.0,0.0,1676477804.05636,0
24,24.0,21138.402359295174,35727.22950306291,-44810.88904272188,-39966.50605994536,175092.16667320332,7232.421008637072,-43891.360627575,-18016.84713564481,-0.058,0.976,0.07,192.0,0.0,0.0,0.0,0.0,0.0,0.0,0.0,0.0,0.0,1676477804.056385,0
25,25.0,21240.25925877801,35811.58498663724,-44727.22646322566,-39950.681024870995,175186.66984876036,7276.8339248697675,-43449.95837807159,-17601.48466843184,-0.058,0.976,0.07,192.0,0.0,0.0,0.0,0.0,0.0,0.0,0.0,0.0,0.0,1676477804.05641,0
26,26.0,21296.138619916277,35898.55562431284,-44749.131172791866,-39965.45552795596,175152.02464485462,7268.34026197675,-43380.846784215784,-17458.701724851337,-0.058,0.976,0.07,192.0,0.0,0.0,0.0,0.0,0.0,0.0,0.0,0.0,0.0,1676477804.056434,0
27,27.0,21193.38765065523,35823.07378328726,-44837.554673857056,-39978.218374039934,175076.45339685126,7223.9496974885105,-43842.54441768461,-17920.622875764715,-0.062,0.97,0.068,192.0,254.0,16.0,30.0,80.0,2.0,32.0,0.0,0.0,0.0,1676477804.056459,0
28,28.0,21151.723998990536,35754.096299898185,-44809.369124098914,-39946.6800626135,175131.32692948903,7256.806761837812,-43915.25464239772,-18027.57597298336,-0.062,0.97,0.068,192.0,0.0,0.0,0.0,0.0,0.0,0.0,0.0,0.0,0.0,1676477804.056484,0
29,29.0,21254.698485696135,35823.90079783211,-44710.552061862,-39917.958070988425,175240.60460813102,7312.619067742714,-43488.47043376809,-17637.69449444944,-0.062,0.97,0.068,192.0,0.0,0.0,0.0,0.0,0.0,0.0,0.0,0.0,0.0,1676477804.056509,0
30,30.0,21334.60597212386,35926.137676970684,-44706.30523041549,-39925.937643758974,175223.84079978953,7311.277963075396,-43306.34841994625,-17380.783543680136,-0.062,0.97,0.068,192.0,0.0,0.0,0.0,0.0,0.0,0.0,0.0,0.0,0.0,1676477804.056534,0
31,31.0,21247.411817003707,35873.72283622299,-44798.86380420492,-39946.12126900211,175123.48146718522,7258.416087438594,-43730.60688145243,-17791.63095851314,-0.062,0.97,0.068,192.0,0.0,0.0,0.0,0.0,0.0,0.0,0.0,0.0,0.0,1676477804.116417,0
32,32.0,21180.71421154907,35787.62391658115,-44791.37596981239,-39916.03582096527,175142.12282206092,7281.728956905479,-43923.010697723716,-18011.9521036091,-0.062,0.97,0.068,192.0,0.0,0.0,0.0,0.0,0.0,0.0,0.0,0.0,0.0,1676477804.116457,0
33,33.0,21272.06579113791,35847.794812654836,-44681.67360802575,-39873.96983790038,175257.18960251685,7349.342983882783,-43538.00189948105,-17667.511721552815,-0.062,0.97,0.068,192.0,0.0,0.0,0.0,0.0,0.0,0.0,0.0,0.0,0.0,1676477804.116485,0
34,34.0,21373.252138287084,35962.772186132934,-44650.38116578831,-39874.99801814533,175278.93784987187,7365.972681757532,-43239.94138716953,-17326.42410116483,-0.062,0.97,0.068,192.0,0.0,0.0,0.0,0.0,0.0,0.0,0.0,0.0,0.0,1676477804.116511,0
35,35.0,21306.085146198886,35933.84902880777,-44746.62777741287,-39907.899785983536,175177.41622655586,7308.148718851652,-43598.77629265503,-17658.8168929597,-0.062,0.97,0.068,192.0,0.0,0.0,0.0,0.0,0.0,0.0,0.0,0.0,0.0,1676477804.116536,0
36,36.0,21223.8083748589,35837.42360322757,-44763.99508285464,-39885.74920722833,175175.4492730438,7316.731788722491,-43894.9592584323,-17987.856923086278,-0.062,0.97,0.068,192.0,0.0,0.0,0.0,0.0,0.0,0.0,0.0,0.0,0.0,1676477804.11656,0
37,37.0,21294.864570482325,35868.76074895391,-44668.66489275276,-39846.656006175996,175288.79496917667,7378.489658652504,-43579.598495912374,-17718.764271588836,-0.062,0.976,0.064,192.0,254.0,16.0,30.0,128.0,2.0,0.0,0.0,0.0,0.0,1676477804.116585,0
38,38.0,21414.37934808485,35991.874157413746,-44606.39293270027,-39831.412116457475,175345.3895861375,7415.146519559207,-43197.18250002652,-17311.135507957402,-0.062,0.976,0.064,192.0,0.0,0.0,0.0,0.0,0.0,0.0,0.0,0.0,0.0,1676477804.11661,0
39,39.0,21393.703984463693,36013.17536987965,-44669.53661078651,-39840.1069450506,175267.94079159986,7379.8531150642775,-43444.191628002125,-17508.456708008853,-0.062,0.976,0.064,192.0,0.0,0.0,0.0,0.0,0.0,0.0,0.0,0.0,0.0,1676477804.116635,0
40,40.0,21297.747945517058,35916.705240810545,-44701.99134373562,-39816.92818605044,175243.10800351002,7373.438164405605,-43814.090646993005,-17905.69191046857,-0.062,0.976,0.064,192.0,0.0,0.0,0.0,0.0,0.0,0.0,0.0,0.0,0.0,1676477804.116659,0
41,41.0,21345.200698995675,35925.310662425836,-44613.12080778132,-39770.50361281677,175338.75111803427,7432.46912151207,-43574.368187709835,-17708.571876117217,-0.062,0.976,0.064,192.0,0.0,0.0,0.0,0.0,0.0,0.0,0.0,0.0,0.0,1676477804.116684,0
42,42.0,21471.53275865707,36046.457117373604,-44527.5583300064,-39745.40260379346,175411.08136309165,7481.218276169095,-43138.10683943115,-17265.35913531293,-0.062,0.976,0.064,192.0,0.0,0.0,0.0,0.0,0.0,0.0,0.0,0.0,0.0,1676477804.116709,0
43,43.0,21484.854398352432,36098.268461021005,-44571.52421134999,-39756.51142078774,175344.1825919369,7457.346613090827,-43272.70904454101,-17343.791406606604,-0.062,0.976,0.064,192.0,0.0,0.0,0.0,0.0,0.0,0.0,0.0,0.0,0.0,1676477804.116749,0
44,44.0,21387.400792527296,36005.3969628092,-44625.861302120844,-39747.4813160278,175298.54032975918,7433.944336646121,-43707.87515734138,-17807.43364184304,-0.062,0.976,0.064,192.0,0.0,0.0,0.0,0.0,0.0,0.0,0.0,0.0,0.0,1676477804.116774,0
45,45.0,21402.152943867797,35986.196814322095,-44555.118030919795,-39707.29287949716,175397.78207514074,7482.559380836414,-43571.73068186411,-17712.528134885804,-0.062,0.976,0.064,192.0,0.0,0.0,0.0,0.0,0.0,0.0,0.0,0.0,0.0,1676477804.116799,0
46,46.0,21523.858192426946,36092.99344932955,-44465.53223914293,-39684.896431552945,175486.29498318376,7529.788616870477,-43119.890167700076,-17273.56222552803,-0.062,0.976,0.064,192.0,0.0,0.0,0.0,0.0,0.0,0.0,0.0,0.0,0.0,1676477804.179521,0
47,47.0,21562.12437893443,36169.97285723363,-44496.42234998016,-39698.28512648167,175433.27664533578,7510.767282339011,-43143.650072056065,-17227.584687183462,-0.064,0.98,0.066,192.0,254.0,0.0,30.0,160.0,2.0,16.0,0.0,0.0,0.0,1676477804.179562,0
48,48.0,21448.376351401374,36075.961420054606,-44579.101452720344,-39709.013963820216,175356.61016185407,7466.890807973244,-43616.3447637969,-17717.110242499144,-0.064,0.98,0.066,192.0,0.0,0.0,0.0,0.0,0.0,0.0,0.0,0.0,0.0,1676477804.179594,0
49,49.0,21432.61837156038,36026.98874795303,-44533.43683879815,-39676.00043725973,175423.17365684197,7506.386340425771,-43599.24567928859,-17736.69037064199,-0.064,0.98,0.066,192.0,0.0,0.0,0.0,0.0,0.0,0.0,0.0,0.0,0.0,1676477804.179624,0
50,50.0,21532.083634386498,36102.26942327851,-44448.790782545904,-39662.8129080311,175512.20065500744,7549.972242113619,-43158.201057696475,-17330.648580866884,-0.064,0.98,0.066,192.0,0.0,0.0,0.0,0.0,0.0,0.0,0.0,0.0,0.0,1676477804.179654,0
51,51.0,21574.104913962474,36177.036008481504,-44474.91997181415,-39689.433835677366,175468.72651204187,7529.408637214737,-43075.141975300554,-17183.39528839532,-0.064,0.98,0.066,192.0,0.0,0.0,0.0,0.0,0.0,0.0,0.0,0.0,0.0,1676477804.179683,0
52,52.0,21453.897232281834,36088.411341716215,-44577.62623758629,-39720.77098140371,175373.93276380692,7465.7285172615675,-43546.45085888515,-17663.331945339676,-0.064,0.98,0.066,192.0,0.0,0.0,0.0,0.0,0.0,0.0,0.0,0.0,0.0,1676477804.179712,0
53,53.0,21396.363842053874,36002.491236030015,-44560.43774610016,-39701.07909453858,175403.43706648794,7484.056947714919,-43652.241665392125,-17802.404499340595,-0.064,0.98,0.066,192.0,0.0,0.0,0.0,0.0,0.0,0.0,0.0,0.0,0.0,1676477804.179741,0
54,54.0,21476.740715115156,36049.69812031962,-44476.50694567048,-39689.992629288754,175498.70020135643,7524.446549945659,-43252.54777104232,-17438.853375775027,-0.064,0.98,0.066,192.0,0.0,0.0,0.0,0.0,0.0,0.0,0.0,0.0,0.0,1676477804.17977,0
55,55.0,21540.957276935253,36137.02638590651,-44482.38545446223,-39717.52997845769,175487.59138436217,7511.191965483662,-43065.30720774022,-17190.100811731914,-0.064,0.98,0.066,192.0,0.0,0.0,0.0,0.0,0.0,0.0,0.0,0.0,0.0,1676477804.179799,0
56,56.0,21431.925467482266,36066.90896355021,-44598.97215354111,-39767.173202892925,175367.9424962929,7433.206729079096,-43503.401399064234,-17611.2076772699,-0.064,0.98,0.066,192.0,0.0,0.0,0.0,0.0,0.0,0.0,0.0,0.0,0.0,1676477804.179827,0
57,57.0,21339.32219020393,35955.82079360733,-44622.441485219184,-39767.2849616152,175362.30985669018,7422.634353951736,-43740.3745937794,-17877.126381054688,-0.062,0.978,0.068,192.0,254.0,16.0,30.0,144.0,2.0,32.0,0.0,0.0,0.0,1676477804.179856,0
58,58.0,21397.682594976737,35977.56904096235,-44551.87702797378,-39760.19945862287,175441.3232733397,7452.675098499668,-43401.745665281494,-17587.380717680542,-0.062,0.978,0.068,192.0,0.0,0.0,0.0,0.0,0.0,0.0,0.0,0.0,0.0,1676477804.179885,0
59,59.0,21471.219834234696,36064.40556817121,-44543.29395810294,-39784.45110135688,175436.22707560388,7447.288328085939,-43124.360516591136,-17266.02968764659,-0.062,0.978,0.068,192.0,0.0,0.0,0.0,0.0,0.0,0.0,0.0,0.0,0.0,1676477804.179914,0
60,60.0,21379.13064707883,36018.8527129713,-44662.7416804721,-39838.609378172085,175315.8852834565,7362.4187543891385,-43493.3654658038,-17595.650863129005,-0.062,0.978,0.068,192.0,0.0,0.0,0.0,0.0,0.0,0.0,0.0,0.0,0.0,1676477804.179942,0
61,61.0,21260.040552620954,35892.00656318743,-44710.44030313972,-39845.69488116442,175267.73962589976,7335.194329642574,-43836.71061238177,-17963.89585303019,-0.062,0.978,0.068,192.0,0.0,0.0,0.0,0.0,0.0,0.0,0.0,0.0,0.0,1676477804.236898,0
62,62.0,21294.93162571569,35888.85496721923,-44641.954558128666,-39832.70851763589,175343.9367227479,7368.096097480786,-43564.019330027026,-17735.12574853012,-0.062,0.978,0.068,192.0,0.0,0.0,0.0,0.0,0.0,0.0,0.0,0.0,0.0,1676477804.236941,0
63,63.0,21380.42704825724,35977.97137236254,-44608.806921101444,-39851.66279693399,175363.36038867958,7370.800658559878,-43206.771398397854,-17355.86134861247,-0.062,0.978,0.068,192.0,0.0,0.0,0.0,0.0,0.0,0.0,0.0,0.0,0.0,1676477804.236972,0
64,64.0,21329.01803601003,35965.32028500084,-44708.04866648301,-39905.0164109488,175263.58220143107,7299.364483280717,-43473.29359928294,-17576.0483832417,-0.062,0.978,0.068,192.0,0.0,0.0,0.0,0.0,0.0,0.0,0.0,0.0,0.0,1676477804.237018,0
65,65.0,21201.34487168132,35840.86577187369,-44773.00283587013,-39912.07956219668,175251.17698325837,7268.228503254474,-43887.6055345065,-18014.075519332353,-0.062,0.978,0.068,192.0,0.0,0.0,0.0,0.0,0.0,0.0,0.0,0.0,0.0,1676477804.237045,0
66,66.0,21207.558656639892,35812.054373270796,-44718.777503821555,-39898.33323935667,175331.48680108628,7295.363521023217,-43692.13952924484,-17854.752284854923,-0.062,0.978,0.068,192.0,0.0,0.0,0.0,0.0,0.0,0.0,0.0,0.0,0.0,1676477804.23707,0
67,67.0,21302.955901975143,35897.259223134424,-44668.374320074836,-39906.625736549584,175384.05810404517,7314.563669510326,-43287.37178890369,-17446.475320634287,-0.06,0.98,0.068,192.0,254.0,32.0,30.0,160.0,2.0,32.0,0.0,0.0,0.0,1676477804.237095,0
68,68.0,21288.717840757115,35921.51086586843,-44742.47035294418,-39944.534295145786,175303.94945191735,7268.429668954572,-43430.69117435112,-17525.779309961716,-0.06,0.98,0.068,192.0,0.0,0.0,0.0,0.0,0.0,0.0,0.0,0.0,0.0,1676477804.237145,0
69,69.0,21162.43048458463,35806.44408541251,-44825.70824929574,-39963.22035351043,175222.27617767768,7221.826281765257,-43900.52484280167,-18012.75676640949,-0.06,0.98,0.068,192.0,0.0,0.0,0.0,0.0,0.0,0.0,0.0,0.0,0.0,1676477804.23717,0
70,70.0,21160.99997293949,35769.630762294626,-44774.03101611508,-39940.48862939938,175284.9281173859,7256.67265137108,-43804.3899898994,-17954.64223082569,-0.06,0.98,0.068,192.0,0.0,0.0,0.0,0.0,0.0,0.0,0.0,0.0,0.0,1676477804.237195,0
71,71.0,21260.621697976792,35853.40510051312,-44701.74547454661,-39938.40991716503,175361.72871133432,7287.473355230493,-43372.24136260049,-17535.32350484413,-0.06,0.98,0.068,192.0,0.0,0.0,0.0,0.0,0.0,0.0,0.0,0.0,0.0,1676477804.237219,0
72,72.0,21280.73826798657,35912.34665064176,-44753.735632149655,-39974.664446671544,175297.64625998095,7248.24604371143,-43398.07997919083,-17486.194370531364,-0.06,0.98,0.068,192.0,0.0,0.0,0.0,0.0,0.0,0.0,0.0,0.0,0.0,1676477804.237244,0
73,73.0,21165.00093519699,35816.725887861954,-44843.142609970884,-39993.86459515865,175209.02159321567,7195.652389008092,-43876.94375240133,-17974.51293164646,-0.06,0.98,0.068,192.0,0.0,0.0,0.0,0.0,0.0,0.0,0.0,0.0,0.0,1676477804.237269,0
74,74.0,21137.105958116765,35759.01368367836,-44805.65873451933,-39964.3826442221,175260.85528860753,7225.939002745034,-43888.87958394046,-18016.109528077784,-0.06,0.98,0.068,192.0,0.0,0.0,0.0,0.0,0.0,0.0,0.0,0.0,0.0,1676477804.237294,0
75,75.0,21229.083386550355,35826.180675766554,-44727.11470450339,-39951.97742604941,175339.66753955695,7263.959320063511,-43462.76592764448,-17618.11436630659,-0.06,0.98,0.068,192.0,0.0,0.0,0.0,0.0,0.0,0.0,0.0,0.0,0.0,1676477804.237319,0
76,76.0,21284.381602332785,35908.166874428614,-44748.39356522484,-39969.88117335811,175311.97372817682,7249.028354767365,-43362.27248457343,-17446.184747956366,-0.06,0.98,0.068,192.0,0.0,0.0,0.0,0.0,0.0,0.0,0.0,0.0,0.0,1676477804.296263,0
77,77.0,21173.85222600129,35828.72877463446,-44850.1834094743,-39995.80919692626,175223.28200617817,7191.182040117031,-43824.998298287195,-17907.636512236182,-0.06,0.976,0.07200000000000001,192.0,254.0,32.0,30.0,128.0,2.0,64.0,0.0,0.0,0.0,1676477804.296304,0
78,78.0,21128.142908590187,35754.05159640928,-44826.35644988495,-39963.46622269943,175263.42573921988,7221.960392231988,-43941.42853515489,-18056.499130308526,-0.06,0.976,0.07200000000000001,192.0,0.0,0.0,0.0,0.0,0.0,0.0,0.0,0.0,0.0,1676477804.296332,0
79,79.0,21218.175735256165,35812.99314653792,-44729.394582437824,-39937.56055087573,175358.1971357104,7275.693985902547,-43534.023288968005,-17693.640910821072,-0.06,0.976,0.07200000000000001,192.0,0.0,0.0,0.0,0.0,0.0,0.0,0.0,0.0,0.0,1676477804.296358,0
80,80.0,21295.959805960632,35911.810208774834,-44717.95048927671,-39949.45167892596,175348.80940303917,7275.671634158091,-43314.797379350355,-17412.54537255113,-0.06,0.976,0.07200000000000001,192.0,0.0,0.0,0.0,0.0,0.0,0.0,0.0,0.0,0.0,1676477804.296383,0
81,81.0,21220.857944590804,35868.80545244282,-44805.54697579706,-39971.19992628097,175256.47434669427,7222.80975852129,-43716.905262101325,-17799.18584813903,-0.06,0.976,0.07200000000000001,192.0,0.0,0.0,0.0,0.0,0.0,0.0,0.0,0.0,0.0,1676477804.296407,0
82,82.0,21147.410112310663,35775.88925074211,-44811.58194679999,-39952.44681268297,175258.19543101735,7232.778636548357,-43947.91054104693,-18061.438865833148,-0.06,0.976,0.07200000000000001,192.0,0.0,0.0,0.0,0.0,0.0,0.0,0.0,0.0,0.0,1676477804.296432,0
83,83.0,21220.880296335257,35813.28371921584,-44723.113742245885,-39926.496437370355,175362.4886706458,7284.053538328832,-43597.45753973217,-17757.186920307508,-0.06,0.976,0.07200000000000001,192.0,0.0,0.0,0.0,0.0,0.0,0.0,0.0,0.0,0.0,1676477804.296457,0
84,84.0,21325.106480730356,35928.81988630532,-44680.6454277808,-39921.71316405692,175400.24076703083,7306.941724651066,-43274.22896316397,-17391.892360674425,-0.06,0.976,0.07200000000000001,192.0,0.0,0.0,0.0,0.0,0.0,0.0,0.0,0.0,0.0,1676477804.296481,0
85,85.0,21271.462294037618,35917.39814488866,-44766.47612648918,-39946.74711784686,175310.92319618742,7254.05749726981,-43597.47989147662,-17679.559311814228,-0.06,0.976,0.07200000000000001,192.0,0.0,0.0,0.0,0.0,0.0,0.0,0.0,0.0,0.0,1676477804.296506,0
86,86.0,21178.43433361463,35818.17875125155,-44795.44398730326,-39929.916254272015,175307.61513800803,7251.7105641020025,-43931.83963678356,-18034.37090329777,-0.062,0.982,0.078,192.0,254.0,16.0,30.0,176.0,2.0,112.0,0.0,0.0,0.0,1676477804.296547,0
87,87.0,21237.711159910104,35839.23409452845,-44704.53944260353,-39888.185547373956,175412.31070903668,7314.362503810228,-43644.93264495524,-17790.33455733473,-0.062,0.982,0.078,192.0,0.0,0.0,0.0,0.0,0.0,0.0,0.0,0.0,0.0,1676477804.296572,0
88,88.0,21351.570946165437,35952.87036333923,-44646.87194190883,-39879.62482924758,175462.69154103895,7346.772533270423,-43252.167791386586,-17378.280148301143,-0.062,0.982,0.078,192.0,0.0,0.0,0.0,0.0,0.0,0.0,0.0,0.0,0.0,1676477804.296597,0
89,89.0,21335.880021557812,35978.8430903963,-44712.36255316288,-39897.12624515608,175394.54107219473,7308.573401996304,-43471.55016321542,-17549.248641639788,-0.062,0.982,0.078,192.0,0.0,0.0,0.0,0.0,0.0,0.0,0.0,0.0,0.0,1676477804.296621,0
90,90.0,21235.185412786654,35878.68492349207,-44756.61900718439,-39882.19527985994,175371.2952579612,7294.067119844809,-43878.93305765785,-17980.12321950474,-0.062,0.982,0.078,192.0,0.0,0.0,0.0,0.0,0.0,0.0,0.0,0.0,0.0,1676477804.296646,0
91,91.0,21270.9705556596,35872.56054551131,-44676.063320167465,-39843.07972706315,175467.47481435238,7347.465437348537,-43680.58367736145,-17820.174136182563,-0.062,0.982,0.078,192.0,0.0,0.0,0.0,0.0,0.0,0.0,0.0,0.0,0.0,1676477804.362645,0
92,92.0,21391.401754784794,35981.100616586285,-44593.8759558053,-39827.366450711066,175546.9799693799,7391.0066355474755,-43235.8063144453,-17375.285014544133,-0.062,0.982,0.078,192.0,0.0,0.0,0.0,0.0,0.0,0.0,0.0,0.0,0.0,1676477804.362687,0
93,93.0,21406.355071825394,36033.42605035616,-44642.80392441797,-39845.963102097885,175495.45919841042,7364.7656875569455,-43339.13842906218,-17410.645474272427,-0.062,0.982,0.078,192.0,0.0,0.0,0.0,0.0,0.0,0.0,0.0,0.0,0.0,1676477804.362718,0
94,94.0,21304.699338042657,35944.935494057594,-44703.667724569765,-39839.59285492812,175448.98992168784,7343.419771602127,-43787.91675423584,-17881.507322967926,-0.062,0.982,0.078,192.0,0.0,0.0,0.0,0.0,0.0,0.0,0.0,0.0,0.0,1676477804.362748,0
95,95.0,21310.55549508995,35919.700374567554,-44641.32870928392,-39802.891290532505,175529.25503602685,7395.499336182993,-43689.144395487834,-17819.39182512663,-0.062,0.982,0.078,192.0,0.0,0.0,0.0,0.0,0.0,0.0,0.0,0.0,0.0,1676477804.362777,0
96,96.0,21423.588266800438,36016.63989027022,-44553.62046404129,-39784.1381769345,175614.72810682395,7447.690659486135,-43239.22613134696,-17390.39479379592,-0.066,0.976,0.07,192.0,253.0,240.0,30.0,128.0,2.0,48.0,0.0,0.0,0.0,1676477804.362806,0
97,97.0,21461.988563774656,36091.58528942887,-44587.08102549089,-39803.651249843984,175569.8458039577,7428.334048787839,-43223.624613717155,-17305.815792777037,-0.066,0.976,0.07,192.0,0.0,0.0,0.0,0.0,0.0,0.0,0.0,0.0,0.0,1676477804.362835,0
98,98.0,21356.242460756595,36006.51455003197,-44669.11192764186,-39812.681354603934,175502.18707349148,7382.356510443272,-43691.46897691119,-17786.37829856614,-0.066,0.976,0.07,192.0,0.0,0.0,0.0,0.0,0.0,0.0,0.0,0.0,0.0,1676477804.362864,0
99,99.0,21334.203640723663,35950.344616215785,-44627.40357248826,-39776.65034254198,175560.94980966448,7417.448749238104,-43711.36202947641,-17838.122586980175,-0.066,0.976,0.07,192.0,0.0,0.0,0.0,0.0,0.0,0.0,0.0,0.0,0.0,1676477804.362893,0
100,100.0,21438.58628732995,36024.7535735075,-44533.28037658696,-39752.37634806351,175650.82617411925,7466.197903895129,-43271.792623018344,-17435.38885538445,-0.066,0.976,0.07,192.0,0.0,0.0,0.0,0.0,0.0,0.0,0.0,0.0,0.0,1676477804.362922,0
101,101.0,21507.407308507838,36119.43556302018,-44537.88483594476,-39762.993426679786,175631.0448802763,7461.414630581693,-43138.06213594224,-17240.92867862328,-0.066,0.976,0.07,192.0,0.0,0.0,0.0,0.0,0.0,0.0,0.0,0.0,0.0,1676477804.362951,0
102,102.0,21411.987711428133,36053.54262036594,-44625.21310153164,-39779.24314489879,175539.8274111542,7409.469176467559,-43583.26418200305,-17681.749782770847,-0.066,0.976,0.07,192.0,0.0,0.0,0.0,0.0,0.0,0.0,0.0,0.0,0.0,1676477804.36298,0
103,103.0,21348.486405430605,35963.822718122334,-44613.94782232617,-39759.126574889015,175567.8341469567,7425.160101075185,-43723.65548892683,-17849.857252819213,-0.066,0.976,0.07,192.0,0.0,0.0,0.0,0.0,0.0,0.0,0.0,0.0,0.0,1676477804.36301,0
104,104.0,21430.76317677059,36013.93532919113,-44523.020925881974,-39737.735955445285,175663.76783415888,7474.155124921218,-43325.973251578005,-17493.950425857358,-0.066,0.976,0.07,192.0,0.0,0.0,0.0,0.0,0.0,0.0,0.0,0.0,0.0,1676477804.363038,0
105,105.0,21511.49767774316,36113.489998995065,-44509.49812048652,-39750.878781185005,175662.62789519166,7476.502058089025,-43090.162347574515,-17201.25433221511,-0.066,0.976,0.07,192.0,0.0,0.0,0.0,0.0,0.0,0.0,0.0,0.0,0.0,1676477804.363067,0
106,106.0,21428.930333725257,36068.13830949525,-44610.17037751322,-39784.00406646777,175558.26760032985,7414.878298625744,-43491.0632361249,-17582.731554833837,-0.06,0.974,0.066,192.0,254.0,32.0,30.0,112.0,2.0,16.0,0.0,0.0,0.0,1676477804.416389,0
107,107.0,21335.321227946428,35962.36985473274,-44629.19171204468,-39774.079891929614,175556.54651600678,7409.335066000827,-43749.89643691736,-17868.610366417215,-0.06,0.974,0.066,192.0,0.0,0.0,0.0,0.0,0.0,0.0,0.0,0.0,0.0,1676477804.416446,0
108,108.0,21397.637891487826,35988.27552655644,-44546.7137750046,-39754.05272889766,175641.6172554037,7450.909310687699,-43418.755342811986,-17580.29521468821,-0.06,0.974,0.066,192.0,0.0,0.0,0.0,0.0,0.0,0.0,0.0,0.0,0.0,1676477804.416474,0
109,109.0,21492.565750189515,36090.73592313957,-44515.9577746341,-39764.96038019185,175668.90873538362,7461.14640964823,-43100.734722701876,-17220.45448070222,-0.06,0.974,0.066,192.0,0.0,0.0,0.0,0.0,0.0,0.0,0.0,0.0,0.0,1676477804.416499,0
110,110.0,21427.47747033566,36070.306428707416,-44614.9312990822,-39808.99331676881,175566.0460074003,7394.381748960227,-43423.11393298077,-17503.22639980631,-0.06,0.974,0.066,192.0,0.0,0.0,0.0,0.0,0.0,0.0,0.0,0.0,0.0,1676477804.416524,0
111,111.0,21316.769280048524,35956.11136628525,-44663.27812233903,-39807.80867431268,175519.3308614887,7373.013481260954,-43787.55912632455,-17896.46064000853,-0.06,0.974,0.066,192.0,0.0,0.0,0.0,0.0,0.0,0.0,0.0,0.0,0.0,1676477804.416549,0
112,112.0,21351.436835698707,35954.07735753982,-44597.29577270696,-39789.055560714674,175593.6951152915,7408.530403200437,-43536.01259422453,-17688.365899129618,-0.06,0.974,0.066,192.0,0.0,0.0,0.0,0.0,0.0,0.0,0.0,0.0,0.0,1676477804.416573,0
113,113.0,21453.070217736986,36051.88859127624,-44552.592283796344,-39794.95642125087,175642.0195868039,7428.490510999026,-43159.74332806389,-17293.74585077117,-0.06,0.974,0.066,192.0,0.0,0.0,0.0,0.0,0.0,0.0,0.0,0.0,0.0,1676477804.416598,0
114,114.0,21415.742804496625,36055.66603608919,-44643.273311051526,-39841.17982878445,175541.39203326608,7367.000862002476,-43381.38322608271,-17458.88053880698,-0.06,0.974,0.066,192.0,0.0,0.0,0.0,0.0,0.0,0.0,0.0,0.0,0.0,1676477804.416623,0
115,115.0,21288.471971568106,35935.368947430725,-44715.73766657563,-39851.14870681152,175473.84506152215,7330.947498196066,-43822.31608895255,-17923.148622888162,-0.06,0.974,0.066,192.0,0.0,0.0,0.0,0.0,0.0,0.0,0.0,0.0,0.0,1676477804.416647,0
116,116.0,21291.914140214223,35904.5235400824,-44657.84664843639,-39829.57927341214,175550.04215837028,7365.168018957141,-43657.15904917229,-17798.269426616363,-0.062,0.976,0.062,192.0,254.0,16.0,30.0,128.0,1.0,240.0,0.0,0.0,0.0,1676477804.416672,0
117,117.0,21385.120914592855,35985.95094513309,-44596.6252203733,-39831.74739262431,175608.58137709874,7388.4808884240265,-43236.901549923605,-17379.353032034996,-0.062,0.976,0.062,192.0,0.0,0.0,0.0,0.0,0.0,0.0,0.0,0.0,0.0,1676477804.416697,0
118,118.0,21381.634042457827,36020.37263159426,-44665.53564852901,-39871.89112566604,175527.57865519272,7339.418809344627,-43345.64278669868,-17425.30821863511,-0.062,0.976,0.062,192.0,0.0,0.0,0.0,0.0,0.0,0.0,0.0,0.0,0.0,1676477804.416722,0
119,119.0,21252.77623567298,35904.85881624923,-44753.66857691629,-39891.85123346463,175442.75378498482,7286.936913363566,-43823.18780698631,-17925.517907800426,-0.062,0.976,0.062,192.0,0.0,0.0,0.0,0.0,0.0,0.0,0.0,0.0,0.0,1676477804.416747,0
120,120.0,21226.758805127003,35844.01736784189,-44717.74932357661,-39878.4625385359,175483.18809070447,7309.892154919166,-43771.95760869475,-17911.659826238138,-0.062,0.976,0.062,192.0,0.0,0.0,0.0,0.0,0.0,0.0,0.0,0.0,0.0,1676477804.416772,0
121,121.0,21326.40288190876,35923.18724670258,-44638.57944471591,-39872.29345706623,175561.4415480425,7343.710344280046,-43337.931434861595,-17502.153516072456,-0.062,0.976,0.062,192.0,0.0,0.0,0.0,0.0,0.0,0.0,0.0,0.0,0.0,1676477804.476771,0
122,122.0,21354.096693288888,35988.07436085634,-44681.383035347826,-39907.16217841652,175508.7808381058,7310.9426869085655,-43317.74780961846,-17415.11582316349,-0.062,0.976,0.062,192.0,0.0,0.0,0.0,0.0,0.0,0.0,0.0,0.0,0.0,1676477804.476813,0
123,123.0,21228.032854560955,35884.85400496173,-44793.34292332446,-39944.28842595678,175410.43316250245,7239.171235462575,-43807.56393761205,-17914.476146039506,-0.062,0.976,0.062,192.0,0.0,0.0,0.0,0.0,0.0,0.0,0.0,0.0,0.0,1676477804.476843,0
124,124.0,21187.48679011903,35814.55776864979,-44771.92995213628,-39924.887111769574,175441.8597152066,7258.594901394236,-43863.800926661606,-18004.687786661125,-0.062,0.976,0.062,192.0,0.0,0.0,0.0,0.0,0.0,0.0,0.0,0.0,0.0,1676477804.476873,0
125,125.0,21267.26016608002,35870.6159437437,-44695.285820399025,-39918.40510587754,175533.03248083979,7292.547201221848,-43449.31017748239,-17625.825718143667,-0.062,0.976,0.062,192.0,0.0,0.0,0.0,0.0,0.0,0.0,0.0,0.0,0.0,1676477804.476902,0
126,126.0,21327.498117387073,35953.92089532863,-44711.73670431814,-39940.265111954825,175516.06750679822,7277.862105114711,-43311.53402465988,-17422.670712789382,-0.06,0.976,0.066,192.0,254.0,32.0,30.0,128.0,2.0,16.0,0.0,0.0,0.0,1676477804.476931,0
127,127.0,21217.795755600426,35873.7675397119,-44820.4779410932,-39975.40205423857,175405.11344732207,7209.912801970578,-43765.54265803607,-17868.140979783653,-0.06,0.976,0.066,192.0,0.0,0.0,0.0,0.0,0.0,0.0,0.0,0.0,0.0,1676477804.47696,0
128,128.0,21139.162318606654,35773.09528268519,-44820.857920748946,-39960.76166162034,175414.97056662687,7215.701903784502,-43937.51697987521,-18068.23379614756,-0.06,0.976,0.066,192.0,0.0,0.0,0.0,0.0,0.0,0.0,0.0,0.0,0.0,1676477804.477005,0
129,129.0,21224.076595792365,35821.777382108856,-44726.19828298072,-39930.49739962786,175525.32112900272,7272.832962612268,-43555.212742711636,-17727.995542048877,-0.06,0.976,0.066,192.0,0.0,0.0,0.0,0.0,0.0,0.0,0.0,0.0,0.0,1676477804.477032,0
130,130.0,21306.84510551037,35920.125057712205,-44710.84263453992,-39943.10378350065,175530.46203022744,7276.588055680759,-43302.74978908894,-17417.35099760902,-0.06,0.976,0.066,192.0,0.0,0.0,0.0,0.0,0.0,0.0,0.0,0.0,0.0,1676477804.477058,0
131,131.0,21224.277761492463,35876.53915602436,-44813.10186542295,-39978.352484506664,175413.22713055936,7208.5716973032595,-43691.58073563346,-17782.42203979755,-0.06,0.976,0.066,192.0,0.0,0.0,0.0,0.0,0.0,0.0,0.0,0.0,0.0,1676477804.477083,0
132,132.0,21141.151623863178,35777.34211413171,-44828.56927258602,-39960.3816819646,175416.78105792776,7212.595011305215,-43963.333244721085,-18081.91306375421,-0.06,0.976,0.066,192.0,0.0,0.0,0.0,0.0,0.0,0.0,0.0,0.0,0.0,1676477804.477135,0
133,133.0,21204.608226371794,35802.063143499276,-44747.25362625762,-39938.18639972048,175512.0218410518,7258.863122327701,-43631.85687444888,-17798.18001963854,-0.06,0.976,0.066,192.0,0.0,0.0,0.0,0.0,0.0,0.0,0.0,0.0,0.0,1676477804.47716,0
134,134.0,21313.64003582478,35916.19115068807,-44701.231384424136,-39935.88417004159,175548.34342579168,7280.589017938259,-43286.969457503496,-17427.498689591728,-0.06,0.976,0.066,192.0,0.0,0.0,0.0,0.0,0.0,0.0,0.0,0.0,0.0,1676477804.477186,0
135,135.0,21265.9190614127,35909.843255262764,-44783.6199144864,-39968.517716946335,175452.43209033395,7225.626078322659,-43577.095100533385,-17679.916939725514,-0.06,0.976,0.066,192.0,0.0,0.0,0.0,0.0,0.0,0.0,0.0,0.0,0.0,1676477804.47721,0
136,136.0,21166.85612998678,35803.82893131125,-44817.39340035837,-39957.00656855185,175410.81314215818,7217.512395085382,-43940.08743048757,-18068.189092658653,-0.062,0.97,0.076,192.0,254.0,16.0,30.0,80.0,2.0,96.0,0.0,0.0,0.0,1676477804.537128,0
137,137.0,21211.53726715294,35809.57332963626,-44736.10010577442,-39926.89876877055,175496.4650269109,7267.982634065465,-43690.4631484107,-17859.177930257076,-0.062,0.97,0.076,192.0,0.0,0.0,0.0,0.0,0.0,0.0,0.0,0.0,0.0,1676477804.53717,0
138,138.0,21328.772166821025,35925.91415952613,-44662.89814268329,-39910.626698807086,175576.8866034611,7312.082625875786,-43279.481623110965,-17433.444253616843,-0.062,0.97,0.076,192.0,0.0,0.0,0.0,0.0,0.0,0.0,0.0,0.0,0.0,1676477804.537199,0
139,139.0,21316.992797493076,35957.3854157192,-44727.33822194794,-39932.55376011774,175521.49898070085,7274.017605068399,-43457.26739850848,-17551.10383642958,-0.062,0.97,0.076,192.0,0.0,0.0,0.0,0.0,0.0,0.0,0.0,0.0,0.0,1676477804.537225,0
140,140.0,21201.47898214805,35850.67818768957,-44792.471205290705,-39935.14656247456,175470.44759636495,7242.166369219586,-43886.018560650184,-18008.50993496298,-0.062,0.97,0.076,192.0,0.0,0.0,0.0,0.0,0.0,0.0,0.0,0.0,0.0,1676477804.537249,0
141,141.0,21226.579991171362,35840.10581256221,-44720.05155325551,-39896.008657933315,175559.11696661916,7293.463622744516,-43719.162788291316,-17885.664747436615,-0.062,0.97,0.076,192.0,0.0,0.0,0.0,0.0,0.0,0.0,0.0,0.0,0.0,1676477804.537274,0
142,142.0,21353.98493456661,35949.94228481559,-44630.890444623285,-39873.07576812217,175642.84660134872,7342.704515779557,-43271.8149747628,-17447.905832279426,-0.062,0.97,0.076,192.0,0.0,0.0,0.0,0.0,0.0,0.0,0.0,0.0,0.0,1676477804.537299,0
143,143.0,21380.315289534963,36013.19772162411,-44669.33544508641,-39886.911497940004,175593.49394959142,7320.710399235535,-43326.889673100675,-17435.63472457346,-0.062,0.97,0.076,192.0,0.0,0.0,0.0,0.0,0.0,0.0,0.0,0.0,0.0,1676477804.537324,0
144,144.0,21272.758695216024,35920.68385132359,-44742.31389073299,-39884.765730472296,175528.67389067102,7286.914561619111,-43786.553297824066,-17912.196268105065,-0.062,0.97,0.076,192.0,0.0,0.0,0.0,0.0,0.0,0.0,0.0,0.0,0.0,1676477804.537349,0
145,145.0,21274.34566907235,35884.9210601951,-44683.84172723791,-39841.11277355108,175599.90890025007,7332.959155197043,-43724.50485521613,-17884.68127068058,-0.062,0.97,0.076,192.0,0.0,0.0,0.0,0.0,0.0,0.0,0.0,0.0,0.0,1676477804.537373,0
146,146.0,21386.886702404823,35974.97623860553,-44587.81863305791,-39815.11769474956,175707.06316316882,7384.36816744425,-43273.5137073414,-17460.243995218756,-0.062,0.972,0.08,192.0,254.0,16.0,30.0,96.0,2.0,128.0,0.0,0.0,0.0,1676477804.537398,0
147,147.0,21435.121766939374,36059.64464660223,-44608.76221761254,-39825.6006628991,175679.30229655534,7374.466344650548,-43218.818988659266,-17334.42602567983,-0.062,0.972,0.08,192.0,0.0,0.0,0.0,0.0,0.0,0.0,0.0,0.0,0.0,1676477804.537423,0
148,148.0,21336.058835513453,35989.773093434946,-44690.815471507965,-39831.903854835495,175596.31026939276,7333.361486597239,-43678.99670350512,-17804.662025530582,-0.062,0.972,0.08,192.0,0.0,0.0,0.0,0.0,0.0,0.0,0.0,0.0,0.0,1676477804.537448,0
149,149.0,21295.69158502717,35918.381621644694,-44662.18288686072,-39805.193520211404,175641.63960714813,7357.7248880535235,-43737.535922233576,-17897.48882025347,-0.062,0.972,0.08,192.0,0.0,0.0,0.0,0.0,0.0,0.0,0.0,0.0,0.0,1676477804.537472,0
150,150.0,21396.72146996516,35988.61080272327,-44561.51062983402,-39776.58328730861,175742.40127115266,7410.899688112699,-43313.36686770521,-17511.451841765862,-0.062,0.972,0.08,192.0,0.0,0.0,0.0,0.0,0.0,0.0,0.0,0.0,0.0,1676477804.537513,0
151,151.0,21478.886482582868,36095.29567900845,-44551.94408320714,-39781.00893271076,175725.9280354891,7419.035723094431,-43135.84931324117,-17270.835312704483,-0.062,0.972,0.08,192.0,0.0,0.0,0.0,0.0,0.0,0.0,0.0,0.0,0.0,1676477804.597301,0
152,152.0,21394.083964119432,36042.36674813828,-44643.04979360697,-39802.265441687756,175628.02739477486,7368.520780625437,-43566.70153936166,-17693.149172443053,-0.062,0.972,0.08,192.0,0.0,0.0,0.0,0.0,0.0,0.0,0.0,0.0,0.0,1676477804.597342,0
153,153.0,21331.74494883358,35958.27948549741,-44632.1868458017,-39777.34324662009,175649.9097525966,7390.55960065837,-43740.21813156821,-17895.901846397144,-0.062,0.972,0.08,192.0,0.0,0.0,0.0,0.0,0.0,0.0,0.0,0.0,0.0,1676477804.597374,0
154,154.0,21412.255932361597,36006.69336398761,-44541.57287377988,-39754.25389459776,175754.04653001387,7441.499226272014,-43366.76518520894,-17568.359383149076,-0.062,0.972,0.08,192.0,0.0,0.0,0.0,0.0,0.0,0.0,0.0,0.0,0.0,1676477804.597405,0
155,155.0,21506.245017796162,36115.68046995169,-44515.1084083448,-39757.807821966155,175770.9444488221,7456.899578201721,-43094.90091739904,-17248.774140927093,-0.058,0.972,0.07,192.0,254.0,48.0,30.0,96.0,2.0,48.0,0.0,0.0,0.0,1676477804.597434,0
156,156.0,21433.557144827504,36085.03622830346,-44609.74569436857,-39784.652267056976,175667.18765106055,7401.377844974738,-43464.35290150081,-17589.77235433726,-0.058,0.972,0.07,192.0,0.0,0.0,0.0,0.0,0.0,0.0,0.0,0.0,0.0,1676477804.597463,0
157,157.0,21344.820719339936,35984.721599188044,-44633.4385434912,-39766.01091218125,175641.8631245927,7403.814185120366,-43751.84103868497,-17905.289579068372,-0.058,0.972,0.07,192.0,0.0,0.0,0.0,0.0,0.0,0.0,0.0,0.0,0.0,1676477804.597493,0
158,158.0,21401.303577578496,36006.98393666553,-44552.77109775199,-39739.45703976835,175736.36630014973,7450.864607198788,-43437.70962211009,-17634.38643627005,-0.058,0.972,0.07,192.0,0.0,0.0,0.0,0.0,0.0,0.0,0.0,0.0,0.0,1676477804.597522,0
159,159.0,21500.992357849165,36111.835969905376,-44507.754684419,-39739.546446746164,175775.8841843467,7472.366985364793,-43086.898992884046,-17251.36694328391,-0.058,0.972,0.07,192.0,0.0,0.0,0.0,0.0,0.0,0.0,0.0,0.0,0.0,1676477804.597551,0
160,160.0,21456.400627660827,36108.93024312618,-44588.35507492484,-39769.341322105094,175684.4208460356,7417.89578412721,-43364.552362507864,-17484.11565829702,-0.058,0.972,0.07,192.0,0.0,0.0,0.0,0.0,0.0,0.0,0.0,0.0,0.0,1676477804.59758,0
161,161.0,21349.738103120104,36002.066552885364,-44629.39287774478,-39760.22181036733,175647.24989500642,7398.382711217727,-43739.905207145835,-17889.173971316097,-0.058,0.972,0.07,192.0,0.0,0.0,0.0,0.0,0.0,0.0,0.0,0.0,0.0,1676477804.597609,0
162,162.0,21383.980975625633,36000.14430286221,-44558.403737354725,-39732.79621992067,175725.21277966653,7439.8451971823215,-43511.55978579042,-17703.967416759424,-0.058,0.972,0.07,192.0,0.0,0.0,0.0,0.0,0.0,0.0,0.0,0.0,0.0,1676477804.597639,0
163,163.0,21493.035136823077,36104.415190746215,-44499.261021525985,-39728.035298351686,175787.5517949524,7470.690604530645,-43107.7755222053,-17291.95771121475,-0.058,0.972,0.07,192.0,0.0,0.0,0.0,0.0,0.0,0.0,0.0,0.0,0.0,1676477804.597668,0
164,164.0,21471.845683079446,36125.26936832302,-44577.40272014174,-39767.799051737675,175697.13898863067,7416.8005486489,-43284.35430340222,-17411.003102183713,-0.058,0.972,0.07,192.0,0.0,0.0,0.0,0.0,0.0,0.0,0.0,0.0,0.0,1676477804.597697,0
165,165.0,21344.932478062212,36004.45818954208,-44658.248979836586,-39785.74750253528,175625.56870288478,7368.431373647616,-43737.379460022385,-17891.25268355044,-0.056,0.974,0.074,192.0,254.0,64.0,30.0,112.0,2.0,80.0,0.0,0.0,0.0,1676477804.597726,0
166,166.0,21346.787672852002,35969.276543769425,-44604.18010999919,-39765.02743542522,175691.84162519476,7403.545964186903,-43605.52651948053,-17801.46572607347,-0.056,0.974,0.074,192.0,0.0,0.0,0.0,0.0,0.0,0.0,0.0,0.0,0.0,1676477804.656664,0
167,167.0,21457.09353173894,36061.701007092124,-44525.256100327504,-39754.61152250905,175762.8754690737,7441.90155767221,-43168.751081079376,-17378.347203534508,-0.056,0.974,0.074,192.0,0.0,0.0,0.0,0.0,0.0,0.0,0.0,0.0,0.0,1676477804.656706,0
168,168.0,21472.136255757363,36112.21594956111,-44579.90611552073,-39789.36848513705,175698.3683345757,7400.684940896624,-43224.56338698428,-17364.332659761032,-0.056,0.974,0.074,192.0,0.0,0.0,0.0,0.0,0.0,0.0,0.0,0.0,0.0,1676477804.656738,0
169,169.0,21351.772111865535,36010.02377391145,-44665.088613639906,-39806.199348711896,175621.3442231827,7349.544149582881,-43696.52047115809,-17861.122532024685,-0.056,0.974,0.074,192.0,0.0,0.0,0.0,0.0,0.0,0.0,0.0,0.0,0.0,1676477804.656768,0
170,170.0,21324.32416967442,35950.94811331607,-44630.66692717873,-39788.80969152566,175657.19642128903,7374.578103372825,-43676.11332847039,-17873.34893624174,-0.056,0.974,0.074,192.0,0.0,0.0,0.0,0.0,0.0,0.0,0.0,0.0,0.0,1676477804.656799,0
171,171.0,21429.936162225746,36031.36968986627,-44546.84788547133,-39775.06336868565,175730.30897740234,7414.699484670101,-43250.15613438561,-17467.01657378871,-0.056,0.974,0.074,192.0,0.0,0.0,0.0,0.0,0.0,0.0,0.0,0.0,0.0,1676477804.656843,0
172,172.0,21470.370467945395,36101.59887094484,-44580.30844692093,-39802.93599402142,175682.38683729016,7390.023158791442,-43187.95122956648,-17328.502813399176,-0.056,0.974,0.074,192.0,0.0,0.0,0.0,0.0,0.0,0.0,0.0,0.0,0.0,1676477804.65687,0
173,173.0,21348.262887986053,36006.335736076326,-44689.004980207086,-39834.58606417013,175567.87885044562,7321.8279864583,-43669.519563856076,-17809.71351977748,-0.056,0.974,0.074,192.0,0.0,0.0,0.0,0.0,0.0,0.0,0.0,0.0,0.0,1676477804.656896,0
174,174.0,21289.678965768693,35918.471028622516,-44675.571581789445,-39816.88348256153,175588.5989175557,7335.5966610427695,-43766.52613479211,-17934.436253838096,-0.056,0.974,0.074,192.0,0.0,0.0,0.0,0.0,0.0,0.0,0.0,0.0,0.0,1676477804.656921,0
175,175.0,21370.18994929671,35968.04719782439,-44592.53485113798,-39800.49965387579,175675.50249999794,7380.009577275465,-43365.51348751944,-17562.369115635054,-0.056,0.968,0.07,192.0,254.0,64.0,30.0,64.0,2.0,48.0,0.0,0.0,0.0,1676477804.656946,0
176,176.0,21432.66307504929,36054.570800610876,-44600.916755308725,-39822.963157053375,175651.1167467972,7369.12427772573,-43191.21458425696,-17319.025673750126,-0.056,0.968,0.07,192.0,0.0,0.0,0.0,0.0,0.0,0.0,0.0,0.0,0.0,1676477804.656971,0
177,177.0,21327.431062153704,35983.58166022082,-44710.32854441745,-39862.19046857244,175547.76228043585,7297.308122790829,-43626.29129007951,-17741.294829999784,-0.056,0.968,0.07,192.0,0.0,0.0,0.0,0.0,0.0,0.0,0.0,0.0,0.0,1676477804.656996,0
178,178.0,21246.07071233639,35882.86469970521,-44718.03989625453,-39849.15940155499,175553.41727178305,7303.58896298277,-43829.13337101143,-17974.065896757354,-0.056,0.968,0.07,192.0,0.0,0.0,0.0,0.0,0.0,0.0,0.0,0.0,0.0,1676477804.657021,0
179,179.0,21307.783878777493,35912.503112852944,-44644.055622107466,-39841.8056776292,175632.2965779658,7337.250690132462,-43477.20515456262,-17663.890738951057,-0.056,0.968,0.07,192.0,0.0,0.0,0.0,0.0,0.0,0.0,0.0,0.0,0.0,1676477804.657046,0
180,180.0,21392.206417585185,36009.73320123353,-44629.996374845075,-39861.206991816405,175630.08375526473,7337.921242466122,-43207.687819920524,-17344.1937380068,-0.056,0.968,0.07,192.0,0.0,0.0,0.0,0.0,0.0,0.0,0.0,0.0,0.0,1676477804.657071,0
181,181.0,21318.289198671486,35975.73619791701,-44733.44024818423,-39899.60728879062,175521.99071907887,7274.710509146513,-43570.00959754105,-17679.939291469967,-0.056,0.968,0.07,192.0,0.0,0.0,0.0,0.0,0.0,0.0,0.0,0.0,0.0,1676477804.716486,0
182,182.0,21216.029967788454,35861.67524596158,-44770.61119921341,-39896.18747188896,175501.8294455802,7261.880607829167,-43884.85626993851,-18023.999693870508,-0.056,0.968,0.07,192.0,0.0,0.0,0.0,0.0,0.0,0.0,0.0,0.0,0.0,1676477804.716527,0
183,183.0,21266.030820134976,35873.32050482279,-44692.760073275575,-39873.47809952237,175591.30347863477,7305.511213005926,-43591.57903094042,-17775.76121994987,-0.056,0.968,0.07,192.0,0.0,0.0,0.0,0.0,0.0,0.0,0.0,0.0,0.0,1676477804.716555,0
184,184.0,21367.686553917712,35975.37857000573,-44649.55415124347,-39880.563602514696,175631.5589703988,7321.246841102463,-43234.08523012224,-17390.797125196117,-0.056,0.968,0.07,192.0,0.0,0.0,0.0,0.0,0.0,0.0,0.0,0.0,0.0,1676477804.716581,0
185,185.0,21329.196849965676,35977.12200607324,-44734.1108005179,-39917.01929772131,175540.56501872124,7262.640567140647,-43497.32172457239,-17607.832563857148,-0.056,0.968,0.068,192.0,254.0,64.0,30.0,64.0,2.0,32.0,0.0,0.0,0.0,1676477804.716606,0
186,186.0,21214.845325332324,35861.16115583911,-44788.11261512192,-39919.790914033765,175506.41155319352,7236.913709272589,-43889.7065984853,-18030.7052172071,-0.056,0.968,0.068,192.0,0.0,0.0,0.0,0.0,0.0,0.0,0.0,0.0,0.0,1676477804.716631,0
187,187.0,21246.137767569755,35856.802565670325,-44714.016582252574,-39888.051436907226,175594.25390890287,7281.147811549642,-43670.19011618973,-17855.556947655314,-0.056,0.968,0.068,192.0,0.0,0.0,0.0,0.0,0.0,0.0,0.0,0.0,0.0,1676477804.716656,0
188,188.0,21357.158882279266,35958.21243026405,-44647.02840412002,-39879.110739125106,175658.73869165644,7313.244916587462,-43256.2581606219,-17433.958343739312,-0.056,0.968,0.068,192.0,0.0,0.0,0.0,0.0,0.0,0.0,0.0,0.0,0.0,1676477804.71668,0
189,189.0,21350.721579876135,35990.75657019098,-44712.51901537407,-39907.13982667206,175575.32198134923,7269.882532344167,-43403.26558390446,-17520.638408736995,-0.056,0.968,0.068,192.0,0.0,0.0,0.0,0.0,0.0,0.0,0.0,0.0,0.0,1676477804.716705,0
190,190.0,21240.125148311276,35889.1231881527,-44778.411958028315,-39908.23506215037,175508.4232101945,7240.378229663162,-43848.400574731895,-17990.74029812101,-0.056,0.968,0.068,192.0,0.0,0.0,0.0,0.0,0.0,0.0,0.0,0.0,0.0,1676477804.71673,0
191,191.0,21240.214555289098,35851.57225746778,-44724.52190214657,-39883.53638452726,175566.11306263367,7278.644416170647,-43733.758477420626,-17910.65399773765,-0.056,0.968,0.068,192.0,0.0,0.0,0.0,0.0,0.0,0.0,0.0,0.0,0.0,1676477804.716755,0
192,192.0,21350.766283365047,35945.20371499106,-44642.222779062125,-39865.99026512984,175657.82227013377,7324.756064981946,-43294.68080934058,-17482.819257118615,-0.056,0.968,0.068,192.0,0.0,0.0,0.0,0.0,0.0,0.0,0.0,0.0,0.0,1676477804.716795,0
193,193.0,21372.268661531052,36005.70988723158,-44689.45201509619,-39890.95716368642,175601.92055725105,7299.140965836164,-43324.4756846995,-17433.60071582803,-0.056,0.968,0.068,192.0,0.0,0.0,0.0,0.0,0.0,0.0,0.0,0.0,0.0,1676477804.71682,0
194,194.0,21254.094988595843,35909.932662240586,-44776.95909463872,-39905.06111443772,175524.06943131323,7253.878683314167,-43802.24422243169,-17919.25941935294,-0.056,0.968,0.068,192.0,0.0,0.0,0.0,0.0,0.0,0.0,0.0,0.0,0.0,1676477804.716845,0
195,195.0,21228.0105028165,35852.48867899045,-44739.89990233182,-39882.12822462657,175573.35502783718,7284.947608107043,-43791.38127462641,-17937.297277128375,-0.056,0.968,0.066,192.0,254.0,64.0,30.0,64.0,2.0,16.0,0.0,0.0,0.0,1676477804.71687,0
196,196.0,21325.866440041835,35924.30483392535,-44658.15957285876,-39870.8629454211,175653.79895613182,7326.566556282825,-43360.238475827995,-17536.37403683353,-0.056,0.968,0.066,192.0,0.0,0.0,0.0,0.0,0.0,0.0,0.0,0.0,0.0,1676477804.776783,0
197,197.0,21385.56794948196,36012.30365184589,-44671.235343365115,-39882.93288742696,175629.07792676426,7318.519928278915,-43265.020044448385,-17371.61932845346,-0.056,0.968,0.066,192.0,0.0,0.0,0.0,0.0,0.0,0.0,0.0,0.0,0.0,1676477804.776825,0
198,198.0,21279.531273785982,35934.49722939697,-44769.068928846,-39906.96101271642,175539.04510009827,7259.936006061555,-43725.6224424389,-17830.746511309924,-0.056,0.968,0.066,192.0,0.0,0.0,0.0,0.0,0.0,0.0,0.0,0.0,0.0,1676477804.776856,0
199,199.0,21227.58581967185,35856.802565670325,-44753.869742616385,-39881.59178275964,175578.18300463952,7279.9184656046,-43834.430734447335,-17975.004670024475,-0.056,0.968,0.066,192.0,0.0,0.0,0.0,0.0,0.0,0.0,0.0,0.0,0.0,1676477804.776885,0
200,200.0,21320.65848358375,35922.00260424645,-44657.60077924738,-39852.91449462348,175677.20123257654,7329.718152251024,-43426.66786034917,-17609.508944691293,-0.056,0.968,0.066,192.0,0.0,0.0,0.0,0.0,0.0,0.0,0.0,0.0,0.0,1676477804.776915,0
201,201.0,21401.035356645032,36025.71469851908,-44646.24609306408,-39861.765785427786,175666.89707838264,7334.635536031192,-43218.595471214714,-17339.343409459998,-0.056,0.968,0.066,192.0,0.0,0.0,0.0,0.0,0.0,0.0,0.0,0.0,0.0,1676477804.776944,0
202,202.0,21316.389300392784,35975.75854966146,-44739.43051569826,-39888.185547373956,175562.76030096537,7278.622064426192,-43628.83938894742,-17733.337608973696,-0.056,0.968,0.066,192.0,0.0,0.0,0.0,0.0,0.0,0.0,0.0,0.0,0.0,1676477804.776974,0
203,203.0,21244.237869291053,35884.697542750546,-44740.05636454301,-39866.6608174635,175573.0868069037,7292.010759354921,-43841.80681011758,-17983.677146873135,-0.056,0.968,0.066,192.0,0.0,0.0,0.0,0.0,0.0,0.0,0.0,0.0,0.0,1676477804.777003,0
204,204.0,21322.983065007098,35928.97634851651,-44644.41325001875,-39835.83776185963,175679.4587587665,7346.951347226066,-43477.808651662905,-17667.981108186377,-0.056,0.968,0.066,192.0,0.0,0.0,0.0,0.0,0.0,0.0,0.0,0.0,0.0,1676477804.777032,0
205,205.0,21421.71072026619,36037.62817831375,-44612.45025544766,-39837.26827350477,175699.463570054,7367.917283525144,-43172.93085729252,-17316.499926626675,-0.058,0.976,0.068,192.0,254.0,48.0,30.0,128.0,2.0,32.0,0.0,0.0,0.0,1676477804.777061,0
206,206.0,21362.657411415268,36016.43872457012,-44701.83488152443,-39863.62098021758,175609.83307478824,7318.095245134265,-43506.88827119926,-17617.823793628668,-0.058,0.976,0.068,192.0,0.0,0.0,0.0,0.0,0.0,0.0,0.0,0.0,0.0,1676477804.77709,0
207,207.0,21274.54683477245,35917.15227569965,-44724.298384702015,-39845.09138406413,175603.28401366284,7317.871727689711,-43816.34817318299,-17960.900719273177,-0.058,0.976,0.068,192.0,0.0,0.0,0.0,0.0,0.0,0.0,0.0,0.0,0.0,1676477804.777144,0
208,208.0,21339.27748671502,35944.68962486859,-44631.44923823467,-39800.32083992015,175716.54030281786,7378.288492952406,-43519.405248094234,-17705.93437027149,-0.058,0.976,0.068,192.0,0.0,0.0,0.0,0.0,0.0,0.0,0.0,0.0,0.0,1676477804.777173,0
209,209.0,21449.829214790967,36059.37642566877,-44574.139365451265,-39788.60852582556,175757.7792713379,7409.335066000827,-43140.297310387774,-17295.24341764968,-0.058,0.976,0.068,192.0,0.0,0.0,0.0,0.0,0.0,0.0,0.0,0.0,0.0,1676477804.777202,0
210,210.0,21429.667941292282,36080.87880383478,-44644.72617444112,-39809.86503480256,175670.65217145113,7368.900760281177,-43376.77876672492,-17475.242015748267,-0.058,0.976,0.068,192.0,0.0,0.0,0.0,0.0,0.0,0.0,0.0,0.0,0.0,1676477804.777231,0
211,211.0,21334.963600035146,35984.878061399235,-44684.33346561593,-39792.31891540514,175605.2956706638,7360.116524710242,-43763.91098069084,-17896.59475047526,-0.058,0.976,0.068,192.0,0.0,0.0,0.0,0.0,0.0,0.0,0.0,0.0,0.0,1676477804.792451,0
212,212.0,21376.962527866668,35989.57192773485,-44596.46875816212,-39747.05663288315,175679.30229655534,7417.269935282462,-43545.08740247338,-17728.442576937985,-0.058,0.976,0.068,192.0,0.0,0.0,0.0,0.0,0.0,0.0,0.0,0.0,0.0,1676477804.792491,0
213,213.0,21499.15951480383,36104.95163261314,-44511.88975714323,-39729.354051274546,175758.9862655385,7460.408802081204,-43108.73664721688,-17295.198714160768,-0.058,0.976,0.068,192.0,0.0,0.0,0.0,0.0,0.0,0.0,0.0,0.0,0.0,1676477804.844132,0
214,214.0,21501.01470959362,36150.79506049098,-44567.61265607031,-39755.17031612043,175694.210910107,7426.61296446478,-43231.13479985414,-17354.028505567134,-0.058,0.976,0.068,192.0,0.0,0.0,0.0,0.0,0.0,0.0,0.0,0.0,0.0,1676477804.844185,0
215,215.0,21393.100487363397,36053.4085098992,-44631.940976612685,-39754.90209518696,175631.42485993207,7397.51099318397,-43679.60020060542,-17825.247982173918,-0.062,0.98,0.07,192.0,254.0,16.0,30.0,160.0,2.0,48.0,0.0,0.0,0.0,1676477804.844215,0
216,216.0,21393.301653063496,36016.394021081214,-44577.268609675004,-39728.236464051784,175694.14385487366,7435.7324762025455,-43579.28557149,-17756.829292396225,-0.062,0.98,0.07,192.0,0.0,0.0,0.0,0.0,0.0,0.0,0.0,0.0,0.0,1676477804.844241,0
217,217.0,21502.467572983216,36105.35396401334,-44494.656562168195,-39714.601899934045,175781.9415070941,7475.295063888439,-43144.09710694517,-17339.63398213792,-0.062,0.98,0.07,192.0,0.0,0.0,0.0,0.0,0.0,0.0,0.0,0.0,0.0,1676477804.844266,0
218,218.0,21537.716273989234,36179.02531373803,-44525.14434160523,-39732.48329549829,175731.24775066946,7454.552645033914,-43144.38767962309,-17271.684678993784,-0.062,0.98,0.07,192.0,0.0,0.0,0.0,0.0,0.0,0.0,0.0,0.0,0.0,1676477804.844292,0
219,219.0,21418.84969697591,36084.81271085891,-44613.74665662607,-39753.181010863904,175635.1128977672,7401.109624041274,-43616.05419111898,-17753.74475166139,-0.062,0.98,0.07,192.0,0.0,0.0,0.0,0.0,0.0,0.0,0.0,0.0,0.0,1676477804.844316,0
220,220.0,21383.600995969893,36018.83036122684,-44581.0237027435,-39731.63392920899,175675.39074127565,7426.411798764682,-43635.321394839455,-17803.589141796725,-0.062,0.98,0.07,192.0,0.0,0.0,0.0,0.0,0.0,0.0,0.0,0.0,0.0,1676477804.844341,0
221,221.0,21479.512331427613,36089.23835626106,-44493.33780924533,-39714.84776912305,175757.3322364488,7471.092935930841,-43209.990049599415,-17403.87289570247,-0.062,0.98,0.07,192.0,0.0,0.0,0.0,0.0,0.0,0.0,0.0,0.0,0.0,1676477804.844366,0
222,222.0,21526.54040176158,36166.46363335415,-44520.13755084724,-39743.79327819267,175712.7852097494,7448.741191475534,-43109.83188269519,-17229.93162035127,-0.062,0.98,0.07,192.0,0.0,0.0,0.0,0.0,0.0,0.0,0.0,0.0,0.0,1676477804.84439,0
223,223.0,21409.886647449333,36080.45412069013,-44631.29277602348,-39781.992409466795,175593.42689435804,7382.289455209906,-43581.43133895771,-17690.958701486434,-0.062,0.98,0.07,192.0,0.0,0.0,0.0,0.0,0.0,0.0,0.0,0.0,0.0,1676477804.844415,0
224,224.0,21332.639018611793,35981.34648577529,-44637.97594761562,-39778.34907512058,175607.37438289815,7384.211705233062,-43724.728372660684,-17864.29647973734,-0.062,0.976,0.074,192.0,254.0,16.0,30.0,128.0,2.0,80.0,0.0,0.0,0.0,1676477804.84444,0
225,225.0,21409.126688137854,36026.832285741846,-44557.91199897671,-39765.87680171452,175697.7648374754,7420.354476017294,-43335.65155692716,-17523.074748882624,-0.062,0.976,0.074,192.0,0.0,0.0,0.0,0.0,0.0,0.0,0.0,0.0,0.0,1676477804.844465,0
226,226.0,21475.62312789239,36113.73586818408,-44562.58351356787,-39791.4919008603,175681.7162849565,7411.480833468537,-43126.77450499231,-17256.306678808534,-0.062,0.976,0.074,192.0,0.0,0.0,0.0,0.0,0.0,0.0,0.0,0.0,0.0,1676477804.84449,0
227,227.0,21376.291975533008,36052.58149535436,-44674.07401491094,-39834.11667753657,175569.8011004688,7340.335230867295,-43542.58400709439,-17648.95977365491,-0.062,0.976,0.074,192.0,0.0,0.0,0.0,0.0,0.0,0.0,0.0,0.0,0.0,1676477804.844515,0
228,228.0,21281.095895897855,35939.571075388325,-44700.8514047684,-39830.428639701444,175553.26080957186,7331.707457507546,-43795.24812641718,-17931.619934036724,-0.062,0.976,0.074,192.0,0.0,0.0,0.0,0.0,0.0,0.0,0.0,0.0,0.0,1676477804.903888,0
229,229.0,21337.489347158593,35961.40872972116,-44627.9847178441,-39819.54334015171,175641.9078280816,7363.089306722797,-43464.77758464546,-17650.54674751124,-0.062,0.976,0.074,192.0,0.0,0.0,0.0,0.0,0.0,0.0,0.0,0.0,0.0,1676477804.903928,0
230,230.0,21420.548429554514,36054.88372503325,-44603.17428149871,-39836.57536942665,175654.2683427654,7364.4751148790265,-43168.86283980165,-17316.321112671034,-0.062,0.976,0.074,192.0,0.0,0.0,0.0,0.0,0.0,0.0,0.0,0.0,0.0,1676477804.903956,0
231,231.0,21356.443626456694,36032.17435266666,-44697.4986431001,-39874.41687278949,175546.89056240208,7302.024340870898,-43500.62978275178,-17608.0560813017,-0.062,0.976,0.074,192.0,0.0,0.0,0.0,0.0,0.0,0.0,0.0,0.0,0.0,1676477804.903983,0
232,232.0,21244.550793713428,35911.743153541465,-44743.52088493358,-39878.01550364679,175510.01018405083,7278.934988848566,-43840.778629872635,-17979.810295082367,-0.062,0.976,0.074,192.0,0.0,0.0,0.0,0.0,0.0,0.0,0.0,0.0,0.0,1676477804.904007,0
233,233.0,21278.59250051886,35908.47979885099,-44676.15272714529,-39860.87171564958,175585.67083903204,7313.736654965479,-43580.380806968315,-17761.098475587187,-0.062,0.976,0.074,192.0,0.0,0.0,0.0,0.0,0.0,0.0,0.0,0.0,0.0,1676477804.904032,0
234,234.0,21378.013059856065,36006.22397735405,-44631.538645212495,-39869.29832330922,175625.72516509597,7331.4839400629935,-43211.15234031109,-17368.668898185362,-0.056,0.974,0.074,192.0,254.0,64.0,30.0,112.0,2.0,80.0,0.0,0.0,0.0,1676477804.904058,0
235,235.0,21345.55832690696,36015.25408211399,-44713.681306085746,-39908.03389645027,175538.933341376,7278.175029537086,-43438.26841572147,-17543.75011250378,-0.056,0.974,0.074,192.0,0.0,0.0,0.0,0.0,0.0,0.0,0.0,0.0,0.0,1676477804.904098,0
236,236.0,21219.427432945664,35892.095970165254,-44780.2671528181,-39916.5722628322,175471.58753533216,7247.53078788886,-43859.241170792724,-17992.394327210706,-0.056,0.974,0.074,192.0,0.0,0.0,0.0,0.0,0.0,0.0,0.0,0.0,0.0,1676477804.904123,0
237,237.0,21233.0619970634,35870.8171094438,-44717.92813753225,-39891.18068113097,175542.1296408331,7290.312026776318,-43680.494270383635,-17848.806720829813,-0.056,0.974,0.074,192.0,0.0,0.0,0.0,0.0,0.0,0.0,0.0,0.0,0.0,1676477804.904148,0
238,238.0,21339.88098381531,35965.52145070094,-44648.77184018753,-39887.626753762575,175605.72035380846,7322.029152158399,-43258.7615560009,-17426.60461981352,-0.056,0.974,0.074,192.0,0.0,0.0,0.0,0.0,0.0,0.0,0.0,0.0,0.0,1676477804.904173,0
239,239.0,21341.870289071834,36005.642831998215,-44706.77461704906,-39920.75203904534,175529.79147789377,7279.650244671136,-43369.3356358213,-17471.822198846603,-0.056,0.974,0.074,192.0,0.0,0.0,0.0,0.0,0.0,0.0,0.0,0.0,0.0,1676477804.904198,0
240,240.0,21222.221401002575,35903.92004298211,-44781.45179527424,-39926.54114085926,175464.45732885093,7239.662973840592,-43832.128504768436,-17953.010553480453,-0.056,0.974,0.074,192.0,0.0,0.0,0.0,0.0,0.0,0.0,0.0,0.0,0.0,1676477804.904223,0
241,241.0,21218.376900956264,35864.67037971859,-44731.026259783066,-39895.82984397768,175587.03429544382,7276.498648702937,-43751.63987298487,-17902.428555778093,-0.056,0.974,0.074,192.0,0.0,0.0,0.0,0.0,0.0,0.0,0.0,0.0,0.0,1676477804.904247,0
242,242.0,21329.777995321514,35954.74790987348,-44651.386994288805,-39878.23902109135,175694.6132415072,7319.950439924055,-43321.59230966477,-17489.70359441085,-0.056,0.974,0.074,192.0,0.0,0.0,0.0,0.0,0.0,0.0,0.0,0.0,0.0,1676477804.904273,0
243,243.0,21361.7409898926,36020.43968682762,-44691.06134069697,-39903.22827139238,175652.2119822755,7295.296465789851,-43310.63995488166,-17408.29854110462,-0.056,0.974,0.074,192.0,0.0,0.0,0.0,0.0,0.0,0.0,0.0,0.0,0.0,1676477804.964645,0
244,244.0,21244.10375882432,35924.68481358109,-44786.793862199054,-39924.395373391555,175565.21899285543,7241.71933433048,-43787.55912632455,-17894.717203941014,-0.056,0.982,0.076,192.0,254.0,64.0,30.0,176.0,2.0,96.0,0.0,0.0,0.0,1676477804.964687,0
245,245.0,21211.559618897394,35862.07757736177,-44755.076736816976,-39898.71321901241,175613.18583645654,7269.524904432882,-43820.796170329595,-17961.347754162285,-0.056,0.982,0.076,192.0,0.0,0.0,0.0,0.0,0.0,0.0,0.0,0.0,0.0,1676477804.964718,0
246,246.0,21312.54480034647,35937.42530792062,-44661.17705836023,-39874.6627419785,175717.479076085,7323.213794614529,-43392.380284354724,-17572.42740063994,-0.056,0.982,0.076,192.0,0.0,0.0,0.0,0.0,0.0,0.0,0.0,0.0,0.0,1676477804.964748,0
247,247.0,21371.508702219573,36023.03248918444,-44670.207163120176,-39893.10293115413,175697.00487816392,7311.434425286583,-43258.7615560009,-17371.976956364746,-0.056,0.982,0.076,192.0,0.0,0.0,0.0,0.0,0.0,0.0,0.0,0.0,0.0,1676477804.964777,0
248,248.0,21275.39620106175,35958.16772677514,-44763.168068309795,-39912.32543138569,175613.2528916899,7252.67168911358,-43705.75174161813,-17814.04975820181,-0.056,0.982,0.076,192.0,0.0,0.0,0.0,0.0,0.0,0.0,0.0,0.0,0.0,1676477804.964806,0
249,249.0,21221.34968296882,35881.7694642269,-44750.69579490373,-39885.36922757259,175640.52201992538,7272.385927723161,-43850.702804410794,-17987.476943430538,-0.056,0.982,0.076,192.0,0.0,0.0,0.0,0.0,0.0,0.0,0.0,0.0,0.0,1676477804.964835,0
250,250.0,21307.94034098868,35937.44765966507,-44657.60077924738,-39861.94459938343,175743.69767233107,7320.218660857518,-43455.32279674087,-17639.370875283585,-0.056,0.982,0.076,192.0,0.0,0.0,0.0,0.0,0.0,0.0,0.0,0.0,0.0,1676477804.964865,0
251,251.0,21396.319138564962,36042.94789349412,-44636.076049336916,-39867.46548026389,175751.4760794015,7329.986373184487,-43207.10667456468,-17333.263734968154,-0.056,0.982,0.076,192.0,0.0,0.0,0.0,0.0,0.0,0.0,0.0,0.0,0.0,1676477804.964894,0
252,252.0,21318.55741960495,36000.36782030676,-44730.78039059405,-39897.10389341163,175661.57736320226,7272.229465511974,-43599.178624055225,-17705.26381793783,-0.056,0.982,0.076,192.0,0.0,0.0,0.0,0.0,0.0,0.0,0.0,0.0,0.0,1676477804.964923,0
253,253.0,21237.241773276543,35900.34376386926,-44741.26335874359,-39878.44018679144,175672.70853194103,7273.771735879391,-43851.46276372227,-17988.415716697662,-0.056,0.982,0.076,192.0,0.0,0.0,0.0,0.0,0.0,0.0,0.0,0.0,0.0,1676477804.964952,0
254,254.0,21309.393204378273,35935.21248521954,-44647.36368028685,-39842.811506129685,175767.8822598317,7331.573347040814,-43510.35279158984,-17692.948006742958,-0.052000000000000005,0.98,0.076,192.0,254.0,96.0,30.0,160.0,2.0,96.0,0.0,0.0,0.0,1676477804.964982,0
255,255.0,21420.839002232435,36053.319102921385,-44598.79333958547,-39833.870808347565,175804.8967486497,7364.74333581249,-43176.95417129448,-17319.71857782824,-0.052000000000000005,0.98,0.076,192.0,0.0,0.0,0.0,0.0,0.0,0.0,0.0,0.0,0.0,1676477804.965011,0
256,0.0,21369.407638240773,36041.003291726505,-44687.06037843948,-39867.04079711924,175721.8376662538,7307.612276984725,-43480.401454019724,-17583.022127511755,-0.052000000000000005,0.98,0.076,192.0,0.0,0.0,0.0,0.0,0.0,0.0,0.0,0.0,0.0,1676477804.965055,0
257,1.0,21271.149369615243,35935.32424394182,-44727.49468415912,-39859.999997615814,175699.48592179848,7295.899962890144,-43833.40255420239,-17960.677201828625,-0.052000000000000005,0.98,0.076,192.0,0.0,0.0,0.0,0.0,0.0,0.0,0.0,0.0,0.0,1676477804.965082,0
258,2.0,21321.060814983943,35946.16484000264,-44642.98273837361,-39825.31009022118,175801.85691140377,7353.522760095926,-43572.60239989786,-17738.344399731686,-0.052000000000000005,0.98,0.076,192.0,0.0,0.0,0.0,0.0,0.0,0.0,0.0,0.0,0.0,1676477805.023507,0
259,3.0,21434.115938438885,36056.5601058674,-44578.5203073645,-39816.391744183515,175862.4077871332,7390.403138447183,-43172.41676717005,-17319.562115617053,-0.052000000000000005,0.98,0.076,192.0,0.0,0.0,0.0,0.0,0.0,0.0,0.0,0.0,0.0,1676477805.023548,0
260,4.0,21413.66409226228,36079.09066427835,-44652.54928500048,-39848.15357305451,175775.6830186466,7343.397419857672,-43369.91678117714,-17465.384896443476,-0.052000000000000005,0.98,0.076,192.0,0.0,0.0,0.0,0.0,0.0,0.0,0.0,0.0,0.0,1676477805.023575,0
261,5.0,21302.084183941388,35977.01024735096,-44708.294535672016,-39843.45970671889,175729.66077681314,7318.274059089907,-43789.32491413652,-17914.476146039506,-0.052000000000000005,0.98,0.076,192.0,0.0,0.0,0.0,0.0,0.0,0.0,0.0,0.0,0.0,1676477805.023601,0
262,6.0,21329.286256943495,35968.5389362024,-44634.466723736135,-39803.74065682181,175813.77039119846,7372.03000450492,-43613.68490620672,-17775.80592343878,-0.052000000000000005,0.98,0.076,192.0,0.0,0.0,0.0,0.0,0.0,0.0,0.0,0.0,0.0,1676477805.023626,0
263,7.0,21453.67371483728,36079.42594044518,-44549.23952212805,-39779.31020013216,175888.58167989037,7423.483720241037,-43172.72969159242,-17339.969258304747,-0.052000000000000005,0.98,0.076,192.0,0.0,0.0,0.0,0.0,0.0,0.0,0.0,0.0,0.0,1676477805.02365,0
264,8.0,21461.787398074557,36128.532723013486,-44601.94493555366,-39805.70761033388,175823.82867620335,7391.028987291931,-43250.044375663325,-17353.2461945112,-0.058,0.968,0.07200000000000001,192.0,254.0,48.0,30.0,64.0,2.0,64.0,0.0,0.0,0.0,1676477805.023675,0
265,9.0,21346.430044940716,36028.12868692025,-44679.57254404695,-39813.530720893235,175760.483832417,7352.025193217421,-43712.90429984382,-17837.094406735232,-0.058,0.968,0.07200000000000001,192.0,0.0,0.0,0.0,0.0,0.0,0.0,0.0,0.0,0.0,1676477805.0237,0
266,10.0,21344.64190538429,35988.923727145644,-44624.967232342635,-39778.66199954296,175833.37287108577,7391.9454088145985,-43640.909330953284,-17795.229589370443,-0.058,0.968,0.07200000000000001,192.0,0.0,0.0,0.0,0.0,0.0,0.0,0.0,0.0,0.0,1676477805.023725,0
267,11.0,21456.758255572113,36078.129539266774,-44536.34256557734,-39755.10326088706,175933.48633450107,7438.861720426288,-43198.16597678256,-17372.66986044286,-0.058,0.968,0.07200000000000001,192.0,0.0,0.0,0.0,0.0,0.0,0.0,0.0,0.0,0.0,1676477805.02375,0
268,12.0,21493.839799623467,36147.3305401004,-44567.500897348036,-39779.757235021265,175896.270679983,7415.928830615143,-43161.889095531595,-17263.012202145124,-0.058,0.968,0.07200000000000001,192.0,0.0,0.0,0.0,0.0,0.0,0.0,0.0,0.0,0.0,1676477805.023799,0
269,13.0,21384.56212098147,36058.92939077966,-44659.500677526084,-39801.10315097608,175817.68194647814,7363.156361956163,-43633.26503434957,-17746.592193435692,-0.058,0.968,0.07200000000000001,192.0,0.0,0.0,0.0,0.0,0.0,0.0,0.0,0.0,0.0,1676477805.023825,0
270,14.0,21354.27550724453,36000.256061584485,-44624.743714898075,-39767.955513948866,175863.83829877834,7396.192240261107,-43677.25326743761,-17819.257714659896,-0.058,0.968,0.07200000000000001,192.0,0.0,0.0,0.0,0.0,0.0,0.0,0.0,0.0,0.0,1676477805.02385,0
271,15.0,21446.25293567812,36066.28311470546,-44535.336737076854,-39749.94000791788,175946.87502942982,7441.186301849641,-43254.9617594435,-17431.83492801606,-0.058,0.968,0.07200000000000001,192.0,0.0,0.0,0.0,0.0,0.0,0.0,0.0,0.0,0.0,1676477805.023875,0
272,16.0,21511.16240157633,36159.02050245053,-44538.89066444524,-39765.496822058776,175932.3240437894,7431.5079965004925,-43103.28282156978,-17220.3650737244,-0.058,0.968,0.07200000000000001,192.0,0.0,0.0,0.0,0.0,0.0,0.0,0.0,0.0,0.0,1676477805.0239,0
273,17.0,21411.22775211665,36092.121731295796,-44638.31122378245,-39797.102188718585,175843.87819097974,7368.543132369892,-43546.13793446278,-17656.73818072536,-0.058,0.968,0.07200000000000001,192.0,0.0,0.0,0.0,0.0,0.0,0.0,0.0,0.0,0.0,1676477805.083815,0
274,18.0,21349.42517869773,36009.28616634443,-44628.69997366667,-39775.66686578594,175859.2114876761,7383.563504643858,-43711.33967773196,-17853.90291856562,-0.052000000000000005,0.976,0.074,192.0,254.0,96.0,30.0,128.0,2.0,80.0,0.0,0.0,0.0,1676477805.083857,0
275,19.0,21431.500784337615,36060.13638498025,-44536.05199289942,-39752.62221725252,175956.50863129005,7430.345705788816,-43331.74000164748,-17519.85609768106,-0.052000000000000005,0.976,0.074,192.0,0.0,0.0,0.0,0.0,0.0,0.0,0.0,0.0,0.0,1676477805.083885,0
276,20.0,21515.520991745114,36161.92622922972,-44523.37855379326,-39767.57553429312,175970.4337680857,7432.200900578607,-43081.065187581204,-17218.241658001145,-0.052000000000000005,0.976,0.074,192.0,0.0,0.0,0.0,0.0,0.0,0.0,0.0,0.0,0.0,1676477805.083911,0
277,21.0,21437.871031507377,36123.39182178877,-44623.93905209769,-39801.438427142915,175870.85674653732,7368.833705047811,-43467.549200957925,-17578.976461765345,-0.052000000000000005,0.976,0.074,192.0,0.0,0.0,0.0,0.0,0.0,0.0,0.0,0.0,0.0,1676477805.083935,0
278,22.0,21347.905260074767,36018.47273331556,-44642.20042731767,-39784.987543223804,175855.6575603077,7369.213684703552,-43745.627253726394,-17881.104991567732,-0.052000000000000005,0.976,0.074,192.0,0.0,0.0,0.0,0.0,0.0,0.0,0.0,0.0,0.0,1676477805.083976,0
279,23.0,21398.71077522168,36029.13451542074,-44569.601961326836,-39767.933162204405,175937.62140722532,7406.250525265995,-43434.78154358644,-17612.52643019276,-0.052000000000000005,0.976,0.074,192.0,0.0,0.0,0.0,0.0,0.0,0.0,0.0,0.0,0.0,1676477805.084001,0
280,24.0,21494.01861357911,36127.19161834617,-44537.46015280011,-39778.59494430959,175958.85556445786,7420.08625508383,-43109.54131001727,-17249.109417093925,-0.052000000000000005,0.976,0.074,192.0,0.0,0.0,0.0,0.0,0.0,0.0,0.0,0.0,0.0,1676477805.084026,0
281,25.0,21439.212136174698,36114.8758071513,-44631.65040393477,-39816.5482063947,175871.43789189315,7358.417792131638,-43405.43370311662,-17507.98732137529,-0.052000000000000005,0.976,0.074,192.0,0.0,0.0,0.0,0.0,0.0,0.0,0.0,0.0,0.0,1676477805.084051,0
282,26.0,21328.056910998454,36001.016020895964,-44677.71734925715,-39812.748409837295,175827.18143787165,7340.7599140119455,-43769.92359994932,-17907.12242211371,-0.052000000000000005,0.976,0.074,192.0,0.0,0.0,0.0,0.0,0.0,0.0,0.0,0.0,0.0,1676477805.084075,0
283,27.0,21356.153053778777,35990.60010797979,-44615.35598222685,-39798.39858989699,175890.4592264246,7376.03096676242,-43540.393536137766,-17716.260876209843,-0.052000000000000005,0.976,0.074,192.0,0.0,0.0,0.0,0.0,0.0,0.0,0.0,0.0,0.0,1676477805.0841,0
284,28.0,21454.791302060046,36084.11980678079,-44567.16562118121,-39807.853377801584,175937.93433164767,7394.426452449138,-43157.59756059618,-17317.66221733835,-0.05,0.972,0.074,192.0,254.0,112.0,30.0,96.0,2.0,80.0,0.0,0.0,0.0,1676477805.084125,0
285,29.0,21423.38710110034,36095.675658664186,-44647.3860320313,-39849.85230563311,175856.19400217463,7337.161283154641,-43346.805077410354,-17454.968983527302,-0.05,0.972,0.074,192.0,0.0,0.0,0.0,0.0,0.0,0.0,0.0,0.0,0.0,1676477805.08415,0
286,30.0,21295.73628851608,35975.11034907226,-44723.180797479254,-39862.235172061344,175787.9988298415,7291.071986087798,-43789.57078332553,-17925.16027988914,-0.05,0.972,0.074,192.0,0.0,0.0,0.0,0.0,0.0,0.0,0.0,0.0,0.0,1676477805.084175,0
287,31.0,21303.60410256435,35945.42723243561,-44665.91562818475,-39838.13999153853,175856.0598917079,7326.633611516191,-43645.26792112207,-17819.794156526823,-0.05,0.972,0.074,192.0,0.0,0.0,0.0,0.0,0.0,0.0,0.0,0.0,0.0,1676477805.084199,0
288,32.0,21399.694251977715,36028.978053209554,-44599.59800238586,-39838.69878514991,175920.16469480572,7355.422658374627,-43225.569215484764,-17410.019625427678,-0.05,0.972,0.074,192.0,0.0,0.0,0.0,0.0,0.0,0.0,0.0,0.0,0.0,1676477805.144131,0
289,33.0,21404.119897379864,36068.98767578455,-44660.41709904875,-39876.69675072393,175845.7110340251,7313.535489265381,-43302.839196066765,-17421.798994755627,-0.05,0.972,0.074,192.0,0.0,0.0,0.0,0.0,0.0,0.0,0.0,0.0,0.0,1676477805.144171,0
290,34.0,21277.20669236263,35960.0899767983,-44751.94749259323,-39899.74139925735,175765.87060283072,7258.393735694139,-43778.484318075694,-17916.621913507213,-0.05,0.972,0.074,192.0,0.0,0.0,0.0,0.0,0.0,0.0,0.0,0.0,0.0,1676477805.1442,0
291,35.0,21250.406950760716,35901.05901969183,-44720.34212593343,-39882.2623350933,175804.38265852723,7283.114765061709,-43746.25310257114,-17917.78420421889,-0.05,0.972,0.074,192.0,0.0,0.0,0.0,0.0,0.0,0.0,0.0,0.0,0.0,1676477805.144225,0
292,36.0,21347.54763216348,35977.43493049561,-44645.6872994527,-39871.46644252139,175874.99181926154,7322.073855647309,-43316.58551890678,-17510.781289432205,-0.05,0.972,0.074,192.0,0.0,0.0,0.0,0.0,0.0,0.0,0.0,0.0,0.0,1676477805.14425,0
293,37.0,21382.52811223604,36046.61357958479,-44683.90878247128,-39902.08833242516,175826.4885337935,7293.217753555507,-43276.03945446485,-17393.792258953126,-0.05,0.968,0.078,192.0,254.0,112.0,30.0,64.0,2.0,112.0,0.0,0.0,0.0,1676477805.144275,0
294,38.0,21270.67998298168,35958.21243026405,-44779.44013827326,-39924.171855947,175725.97273897802,7235.14792146062,-43746.02958512659,-17867.336316983263,-0.05,0.968,0.078,192.0,0.0,0.0,0.0,0.0,0.0,0.0,0.0,0.0,0.0,1676477805.1443,0
295,39.0,21224.948313826124,35884.3175630948,-44758.563608952005,-39902.53536731427,175760.3273702058,7254.236311225452,-43816.28111794962,-17970.93665253361,-0.05,0.968,0.078,192.0,0.0,0.0,0.0,0.0,0.0,0.0,0.0,0.0,0.0,1676477805.144325,0
296,40.0,21319.853820783355,35949.31643597084,-44667.323788085436,-39880.205974603414,175862.94422900013,7303.454852516038,-43404.204357171584,-17591.314624704675,-0.05,0.968,0.078,192.0,0.0,0.0,0.0,0.0,0.0,0.0,0.0,0.0,0.0,1676477805.144349,0
297,41.0,21389.546559995004,36042.43380337165,-44671.90589569878,-39897.215652133906,175847.2980078814,7300.079739103287,-43240.23195984745,-17359.795255636604,-0.05,0.968,0.078,192.0,0.0,0.0,0.0,0.0,0.0,0.0,0.0,0.0,0.0,1676477805.144374,0
298,42.0,21301.32422462991,35988.83432016782,-44764.8668008884,-39922.2719576683,175755.81231782585,7244.021564009377,-43665.92093299877,-17781.416211297063,-0.05,0.968,0.078,192.0,0.0,0.0,0.0,0.0,0.0,0.0,0.0,0.0,0.0,1676477805.144399,0
299,43.0,21228.47988945006,35896.87924347869,-44769.046577101544,-39909.10678018413,175760.41677718365,7251.934081546555,-43848.22176077626,-17996.216475512563,-0.05,0.968,0.078,192.0,0.0,0.0,0.0,0.0,0.0,0.0,0.0,0.0,0.0,1676477805.14444,0
300,44.0,21313.751794547057,35945.91897081363,-44677.98557019062,-39879.33425656966,175848.9073334822,7300.370311781206,-43478.03216910746,-17668.584605286673,-0.05,0.968,0.078,192.0,0.0,0.0,0.0,0.0,0.0,0.0,0.0,0.0,0.0,1676477805.144465,0
301,45.0,21407.115031136876,36055.33075992236,-44649.442392521196,-39877.32259956868,175856.9539614861,7314.49661427696,-43202.07753206224,-17342.651467639385,-0.05,0.968,0.078,192.0,0.0,0.0,0.0,0.0,0.0,0.0,0.0,0.0,0.0,1676477805.14449,0
302,46.0,21335.947076791177,36024.39594559622,-44740.726916876665,-39903.87647198158,175759.6791696166,7259.265453727896,-43560.84538231437,-17676.608881546126,-0.05,0.968,0.078,192.0,0.0,0.0,0.0,0.0,0.0,0.0,0.0,0.0,0.0,1676477805.144515,0
303,47.0,21256.039590363456,35929.91512178363,-44755.56847519499,-39879.244849591836,175762.51784116242,7265.121610775186,-43842.85734210698,-17988.013385297465,-0.054,0.972,0.076,192.0,254.0,80.0,30.0,96.0,2.0,96.0,0.0,0.0,0.0,1676477805.205083,0
304,48.0,21324.95001851917,35959.575886675826,-44664.35100607288,-39844.33142475264,175871.05791223742,7320.486881790982,-43526.021364453,-17713.69042559748,-0.054,0.972,0.076,192.0,0.0,0.0,0.0,0.0,0.0,0.0,0.0,0.0,0.0,1676477805.205097,0
305,49.0,21432.037226204542,36069.76998684049,-44613.05375254795,-39839.324633994656,175912.0733633129,7348.583024571303,-43172.595581125686,-17324.47949939722,-0.054,0.972,0.076,192.0,0.0,0.0,0.0,0.0,0.0,0.0,0.0,0.0,0.0,1676477805.205104,0
306,50.0,21395.38036529784,36076.60962064381,-44687.820337750956,-39862.257523805805,175831.2047518736,7302.20315482654,-43441.59882564531,-17545.225327637832,-0.054,0.972,0.076,192.0,0.0,0.0,0.0,0.0,0.0,0.0,0.0,0.0,0.0,1676477805.20511,0
307,51.0,21291.802381491947,35969.7906338919,-44728.88049231535,-39855.44024174693,175791.4409984876,7286.735747663468,-43809.68735333531,-17938.861899240244,-0.054,0.972,0.076,192.0,0.0,0.0,0.0,0.0,0.0,0.0,0.0,0.0,0.0,1676477805.205117,0
308,52.0,21332.37079767833,35970.058854825365,-44648.95065414318,-39821.845569830606,175873.27073493847,7338.815312244334,-43576.044568543984,-17752.291888271797,-0.054,0.972,0.076,192.0,0.0,0.0,0.0,0.0,0.0,0.0,0.0,0.0,0.0,1676477805.205123,0
309,53.0,21452.690238081246,36084.79035911446,-44573.40175788424,-39806.98165976783,175947.65734048575,7380.03192901992,-43159.43040364151,-17326.133528486913,-0.054,0.972,0.076,192.0,0.0,0.0,0.0,0.0,0.0,0.0,0.0,0.0,0.0,1676477805.205129,0
310,54.0,21448.599868845926,36122.76597294402,-44634.69024118069,-39830.67450889046,175875.95294427313,7341.318707623328,-43319.02185905241,-17424.034169201157,-0.054,0.972,0.076,192.0,0.0,0.0,0.0,0.0,0.0,0.0,0.0,0.0,0.0,1676477805.205135,0
311,55.0,21336.66233261375,36017.95864319309,-44698.59387857842,-39829.35575596759,175820.47591453505,7311.9261636646,-43751.55046600705,-17884.033070091376,-0.054,0.972,0.076,192.0,0.0,0.0,0.0,0.0,0.0,0.0,0.0,0.0,0.0,1676477805.205141,0
312,56.0,21349.22401299763,35991.851805669285,-44635.74077317009,-39797.63863058551,175908.63119466678,7353.746277540479,-43614.73543819612,-17785.46187704347,-0.054,0.972,0.076,192.0,0.0,0.0,0.0,0.0,0.0,0.0,0.0,0.0,0.0,1676477805.205147,0
313,57.0,21469.096418511443,36093.57459468539,-44550.20064713963,-39777.54441232019,175992.293774163,7403.255391508984,-43184.062026031264,-17360.24229052571,-0.056,0.978,0.074,192.0,254.0,64.0,30.0,144.0,2.0,80.0,0.0,0.0,0.0,1676477805.205154,0
314,58.0,21491.716383900213,36155.71244427114,-44596.222888973105,-39799.27030793075,175933.84396241236,7382.423565676638,-43226.5526922408,-17332.23555472321,-0.056,0.978,0.074,192.0,0.0,0.0,0.0,0.0,0.0,0.0,0.0,0.0,0.0,1676477805.20516,0
315,59.0,21377.70013543369,36062.17039372568,-44679.55019230249,-39808.434523157426,175862.65365632222,7342.436294846094,-43693.30181995652,-17816.553153580804,-0.056,0.978,0.074,192.0,0.0,0.0,0.0,0.0,0.0,0.0,0.0,0.0,0.0,1676477805.205166,0
316,60.0,21366.23369052812,36014.024736168954,-44630.51046496755,-39775.82332799713,175919.53884596098,7382.647083121191,-43659.304816640004,-17819.414176871083,-0.056,0.978,0.074,192.0,0.0,0.0,0.0,0.0,0.0,0.0,0.0,0.0,0.0,1676477805.205172,0
317,61.0,21471.979793546176,36095.16156854171,-44538.622443511784,-39758.41131906644,176014.80198082948,7426.724723187056,-43221.54590148281,-17417.887439475948,-0.056,0.978,0.074,192.0,0.0,0.0,0.0,0.0,0.0,0.0,0.0,0.0,0.0,1676477805.205179,0
318,62.0,21525.802794194555,36178.62298233783,-44553.441650085646,-39772.71643551784,175995.73594280911,7416.152348059696,-43139.15737142055,-17273.40576331684,-0.056,0.978,0.074,192.0,0.0,0.0,0.0,0.0,0.0,0.0,0.0,0.0,0.0,1676477805.263973,0
319,63.0,21424.39292960083,36103.297603523446,-44641.55222672847,-39789.72611304833,175919.53884596098,7366.129143968719,-43590.372036739835,-17732.957629317956,-0.056,0.978,0.074,192.0,0.0,0.0,0.0,0.0,0.0,0.0,0.0,0.0,0.0,1676477805.264019,0
320,64.0,21376.85076914439,36028.12868692025,-44621.256842763054,-39766.86027847055,175957.4250528127,7387.139783756707,-43674.77222380308,-17850.259584219406,-0.056,0.978,0.074,192.0,0.0,0.0,0.0,0.0,0.0,0.0,0.0,0.0,0.0,1676477805.264069,0
321,65.0,21472.96327030221,36094.60277493033,-44526.99953639502,-39739.79231593518,176053.69401618172,7438.973479148564,-43265.98116945996,-17479.332384983587,-0.056,0.978,0.074,192.0,0.0,0.0,0.0,0.0,0.0,0.0,0.0,0.0,0.0,1676477805.264097,0
322,66.0,21547.72985550521,36194.00098252308,-44523.19973983762,-39750.029414895704,176039.41125147478,7442.6615169836905,-43081.847498637144,-17227.964666839205,-0.056,0.978,0.074,192.0,0.0,0.0,0.0,0.0,0.0,0.0,0.0,0.0,0.0,1676477805.264123,0
323,67.0,21451.013857247097,36136.40053706176,-44625.950709098666,-39780.69600828839,175930.9829391221,7381.171867987141,-43508.25172761104,-17638.342695038642,-0.054,0.982,0.07200000000000001,192.0,254.0,80.0,30.0,176.0,2.0,64.0,0.0,0.0,0.0,1676477805.264148,0
324,68.0,21373.587414453916,36039.84100101483,-44634.10909582485,-39764.42393832492,175935.25212231305,7386.692748867602,-43713.50779694412,-17869.593843173247,-0.054,0.982,0.07200000000000001,192.0,0.0,0.0,0.0,0.0,0.0,0.0,0.0,0.0,0.0,1676477805.264173,0
325,69.0,21450.946802013732,36080.69998987913,-44544.65741451472,-39739.43468802389,176037.4890014516,7436.246566325018,-43351.92362689062,-17552.646106796994,-0.054,0.982,0.07200000000000001,192.0,0.0,0.0,0.0,0.0,0.0,0.0,0.0,0.0,0.0,1676477805.264197,0
326,70.0,21545.69584675978,36185.66378184126,-44514.214338566584,-39744.463830526336,176065.3169232985,7449.277633342462,-43065.30720774022,-17222.22026851419,-0.054,0.982,0.07200000000000001,192.0,0.0,0.0,0.0,0.0,0.0,0.0,0.0,0.0,0.0,1676477805.264222,0
327,71.0,21473.477360424684,36150.10215641286,-44607.9799065566,-39781.45596759987,175973.96534370963,7385.418699433649,-43416.430761388634,-17541.17966189142,-0.054,0.982,0.07200000000000001,192.0,0.0,0.0,0.0,0.0,0.0,0.0,0.0,0.0,0.0,1676477805.264247,0
328,72.0,21376.068458088455,36040.869181259775,-44633.17032255773,-39771.17416515043,175951.99357891007,7379.294321452895,-43718.872215613395,-17873.617157175202,-0.054,0.982,0.07200000000000001,192.0,0.0,0.0,0.0,0.0,0.0,0.0,0.0,0.0,0.0,1676477805.264271,0
329,73.0,21428.505650580606,36055.397815155724,-44553.95574020812,-39746.766060205235,176039.92534159726,7422.366133018271,-43429.66299410618,-17625.15516581001,-0.054,0.982,0.07200000000000001,192.0,0.0,0.0,0.0,0.0,0.0,0.0,0.0,0.0,0.0,1676477805.264296,0
330,74.0,21531.904820430856,36159.26637163954,-44508.626402452755,-39749.80589745115,176077.31981007097,7442.370944305771,-43074.89610611154,-17242.94033562426,-0.054,0.982,0.07200000000000001,192.0,0.0,0.0,0.0,0.0,0.0,0.0,0.0,0.0,0.0,1676477805.264321,0
331,75.0,21488.497732698648,36158.39465360578,-44600.58147914189,-39787.60269732508,175991.3997043848,7383.004711032476,-43340.90421687415,-17459.998126029746,-0.054,0.982,0.07200000000000001,192.0,0.0,0.0,0.0,0.0,0.0,0.0,0.0,0.0,0.0,1676477805.264346,0
332,76.0,21370.860501630366,36044.66897781718,-44656.50554376907,-39788.60852582556,175955.01106441155,7357.479018864516,-43737.26770130011,-17877.52871245488,-0.054,0.982,0.07200000000000001,192.0,0.0,0.0,0.0,0.0,0.0,0.0,0.0,0.0,0.0,1676477805.26437,0
333,77.0,21387.08786810492,36026.42995434165,-44598.36865644081,-39772.91760121794,176031.0516990485,7389.017330290953,-43535.81142852443,-17715.590323876182,-0.052000000000000005,0.98,0.07200000000000001,192.0,254.0,96.0,30.0,160.0,2.0,64.0,0.0,0.0,0.0,1676477805.324292,0
334,78.0,21495.449125224248,36123.3247665554,-44539.42710631217,-39771.26357212825,176090.03795266605,7415.973534104054,-43134.75407776285,-17306.75456604416,-0.052000000000000005,0.98,0.07200000000000001,192.0,0.0,0.0,0.0,0.0,0.0,0.0,0.0,0.0,0.0,1676477805.324336,0
335,79.0,21480.898139583845,36150.52683955751,-44608.739865868076,-39806.646383601,176011.60568137237,7367.716117825046,-43284.35430340222,-17393.971072908767,-0.052000000000000005,0.98,0.07200000000000001,192.0,0.0,0.0,0.0,0.0,0.0,0.0,0.0,0.0,0.0,1676477805.324368,0
336,80.0,21350.006324053567,36033.15782942269,-44691.21780290816,-39827.05352628869,175936.79439268046,7318.16230036763,-43745.24727407066,-17881.149695056643,-0.052000000000000005,0.98,0.07200000000000001,192.0,0.0,0.0,0.0,0.0,0.0,0.0,0.0,0.0,0.0,1676477805.324398,0
337,81.0,21340.953867549168,35986.50973874447,-44648.77184018753,-39810.49088364731,175993.56782359694,7349.275928649417,-43641.57988328694,-17808.975912210455,-0.052000000000000005,0.98,0.07200000000000001,192.0,0.0,0.0,0.0,0.0,0.0,0.0,0.0,0.0,0.0,1676477805.324428,0
338,82.0,21443.190746687742,36069.948800796126,-44576.866278274814,-39802.17603470994,176067.48504251064,7386.469231423049,-43214.750971168396,-17393.032299641647,-0.052000000000000005,0.98,0.07200000000000001,192.0,0.0,0.0,0.0,0.0,0.0,0.0,0.0,0.0,0.0,1676477805.324458,0
339,83.0,21455.081874737964,36117.33449904138,-44634.176151058215,-39838.22939851635,176000.67567833373,7350.706440294557,-43254.246503620925,-17355.838996868017,-0.052000000000000005,0.98,0.07200000000000001,192.0,0.0,0.0,0.0,0.0,0.0,0.0,0.0,0.0,0.0,1676477805.324487,0
340,84.0,21327.431062153704,36008.97324192205,-44733.14967550632,-39864.87267790707,175911.15694179022,7292.100166332742,-43735.68072744378,-17848.78436908536,-0.052000000000000005,0.98,0.07200000000000001,192.0,0.0,0.0,0.0,0.0,0.0,0.0,0.0,0.0,0.0,1676477805.324516,0
341,85.0,21294.104611170842,35944.175534746115,-44705.58997459293,-39849.248808532815,175948.86433468634,7312.104977620242,-43738.653509456344,-17884.658918936126,-0.052000000000000005,0.98,0.07200000000000001,192.0,0.0,0.0,0.0,0.0,0.0,0.0,0.0,0.0,0.0,1676477805.324545,0
342,86.0,21391.46881001816,36018.02569842645,-44623.96140384214,-39836.7541833823,176025.01672804556,7350.8852542502,-43312.539853160364,-17489.189504288377,-0.052000000000000005,0.98,0.07200000000000001,192.0,0.0,0.0,0.0,0.0,0.0,0.0,0.0,0.0,0.0,1676477805.32459,0
343,87.0,21441.29084840904,36096.63678367576,-44644.525008741024,-39859.03887260424,175982.5931170694,7332.7803412414005,-43221.92588113855,-17330.849746566983,-0.056,0.97,0.074,192.0,254.0,64.0,30.0,80.0,2.0,80.0,0.0,0.0,0.0,1676477805.324617,0
344,88.0,21331.11909998883,36014.98586118053,-44743.78910586704,-39885.883317695065,175886.12298800028,7268.094392787742,-43688.093863498434,-17800.41519408407,-0.056,0.97,0.074,192.0,0.0,0.0,0.0,0.0,0.0,0.0,0.0,0.0,0.0,1676477805.324642,0
345,89.0,21278.63720400777,35936.218313720026,-44728.90284405981,-39864.135070340046,175914.55440694743,7283.830020884278,-43800.1878619418,-17944.583945820803,-0.056,0.97,0.074,192.0,0.0,0.0,0.0,0.0,0.0,0.0,0.0,0.0,0.0,1676477805.324667,0
346,90.0,21356.35421947887,35981.92763113113,-44652.12460185583,-39853.585046957145,176005.5930621139,7322.096207391764,-43403.62321181574,-17590.62172062656,-0.056,0.97,0.074,192.0,0.0,0.0,0.0,0.0,0.0,0.0,0.0,0.0,0.0,1676477805.324692,0
347,91.0,21426.806918002,36071.93810605265,-44653.95744490116,-39873.45574777791,175992.9419747522,7317.06706488932,-43208.13485480963,-17334.068397768548,-0.056,0.97,0.074,192.0,0.0,0.0,0.0,0.0,0.0,0.0,0.0,0.0,0.0,1676477805.324716,0
348,92.0,21337.578754136415,36017.735125748535,-44752.10395480442,-39902.35655335862,175892.09090376986,7258.48314267196,-43622.53619701102,-17736.019818308334,-0.056,0.97,0.074,192.0,0.0,0.0,0.0,0.0,0.0,0.0,0.0,0.0,0.0,1676477805.38454,0
349,93.0,21257.15717758622,35919.83448503429,-44759.16710605229,-39886.84444270664,175898.08117128388,7266.239197997952,-43840.085725794524,-17986.292300974404,-0.056,0.97,0.074,192.0,0.0,0.0,0.0,0.0,0.0,0.0,0.0,0.0,0.0,1676477805.384583,0
350,94.0,21322.178402206708,35949.852877837766,-44679.840764980414,-39872.33816055515,175983.97892522562,7307.299352562351,-43494.79597744894,-17681.81683800421,-0.056,0.97,0.074,192.0,0.0,0.0,0.0,0.0,0.0,0.0,0.0,0.0,0.0,1676477805.384613,0
351,95.0,21415.116955651876,36050.88276277576,-44651.92343615573,-39882.68701823795,175996.38414339832,7317.871727689711,-43203.440988474016,-17345.82541535204,-0.056,0.97,0.074,192.0,0.0,0.0,0.0,0.0,0.0,0.0,0.0,0.0,0.0,1676477805.384643,0
352,96.0,21357.449454957183,36032.688442789135,-44736.43538194125,-39910.0232017068,175907.1783312772,7263.624043896681,-43530.0223267105,-17645.20468058642,-0.056,0.97,0.074,192.0,0.0,0.0,0.0,0.0,0.0,0.0,0.0,0.0,0.0,1676477805.384672,0
353,97.0,21268.467160280605,35935.54776138637,-44760.642321186344,-39893.19233813195,175895.84599683835,7259.600729894725,-43839.37046997195,-17987.432239941627,-0.058,0.972,0.076,192.0,254.0,48.0,30.0,96.0,2.0,96.0,0.0,0.0,0.0,1676477805.384701,0
354,98.0,21314.802326536457,35948.28825572589,-44682.25475338158,-39867.33136979716,175983.01780021403,7303.58896298277,-43559.683091602696,-17752.001315593876,-0.058,0.972,0.076,192.0,0.0,0.0,0.0,0.0,0.0,0.0,0.0,0.0,0.0,1676477805.384731,0
355,99.0,21421.598961543914,36057.47652739007,-44629.012898089044,-39863.19629707293,176033.5997979164,7331.774512740912,-43188.55472666678,-17355.369610234455,-0.058,0.972,0.076,192.0,0.0,0.0,0.0,0.0,0.0,0.0,0.0,0.0,0.0,1676477805.38476,0
356,100.0,21393.636929230324,36069.591172884844,-44708.20512869419,-39891.247736364334,175949.87016318683,7281.281922016374,-43427.8525028053,-17541.626696780528,-0.058,0.972,0.076,192.0,0.0,0.0,0.0,0.0,0.0,0.0,0.0,0.0,0.0,1676477805.384789,0
357,101.0,21287.801419234445,35964.314456500346,-44757.89305661834,-39882.575259515674,175911.08988655687,7263.445229941039,-43825.78060934313,-17964.052315241377,-0.058,0.972,0.076,192.0,0.0,0.0,0.0,0.0,0.0,0.0,0.0,0.0,0.0,1676477805.384818,0
358,102.0,21320.636131839292,35959.6876453981,-44682.03123593703,-39846.43248873144,176001.7932655565,7316.597678255758,-43621.44096153271,-17797.174191138052,-0.058,0.972,0.076,192.0,0.0,0.0,0.0,0.0,0.0,0.0,0.0,0.0,0.0,1676477805.384847,0
359,103.0,21431.76900527108,36063.444443159635,-44612.20438625865,-39836.7541833823,176071.03896987904,7355.467361863538,-43200.02117157235,-17369.898244130403,-0.058,0.972,0.076,192.0,0.0,0.0,0.0,0.0,0.0,0.0,0.0,0.0,0.0,1676477805.384876,0
360,104.0,21438.318066396485,36109.2208158041,-44664.395709561795,-39857.563657470186,176005.74952432507,7324.376085326206,-43315.78085610639,-17420.279076132665,-0.058,0.972,0.076,192.0,0.0,0.0,0.0,0.0,0.0,0.0,0.0,0.0,0.0,1676477805.384906,0
361,105.0,21326.55934411995,36009.353221577796,-44729.5063411601,-39855.1049655801,175954.89930568927,7296.235239056974,-43757.4289747988,-17883.742497413456,-0.058,0.972,0.076,192.0,0.0,0.0,0.0,0.0,0.0,0.0,0.0,0.0,0.0,1676477805.384933,0
362,106.0,21324.346521418873,35974.05981708286,-44676.957389945674,-39828.70755537839,176022.71449836667,7336.647193032169,-43656.220275905165,-17819.9059152491,-0.054,0.974,0.07,192.0,254.0,80.0,30.0,112.0,2.0,48.0,0.0,0.0,0.0,1676477805.384962,0
363,107.0,21435.97113322868,36066.05959726091,-44591.3725604263,-39812.79311332621,176107.85229299692,7380.5013156534815,-43220.16009332658,-17406.64451201493,-0.054,0.974,0.07,192.0,0.0,0.0,0.0,0.0,0.0,0.0,0.0,0.0,0.0,1676477805.444084,0
364,108.0,21474.371430202893,36139.97681617461,-44618.48522645059,-39824.572482654155,176067.12741459935,7363.134010211708,-43210.638250188626,-17334.76130184666,-0.054,0.974,0.07,192.0,0.0,0.0,0.0,0.0,0.0,0.0,0.0,0.0,0.0,1676477805.444128,0
365,109.0,21361.0927893034,36049.51930636398,-44708.361590905384,-39839.458744461386,175976.6922565332,7314.451910788049,-43676.67212208177,-17814.04975820181,-0.054,0.974,0.07,192.0,0.0,0.0,0.0,0.0,0.0,0.0,0.0,0.0,0.0,1676477805.444159,0
366,110.0,21339.612762881847,35998.847901683795,-44668.77665147503,-39808.07689524614,176029.53178042555,7349.320632138328,-43687.065683253495,-17852.181834242565,-0.054,0.974,0.07,192.0,0.0,0.0,0.0,0.0,0.0,0.0,0.0,0.0,0.0,1676477805.444189,0
367,111.0,21444.263630421596,36079.247126489536,-44579.593191098356,-39789.65905781496,176121.24098792567,7394.113528026764,-43258.1133554117,-17457.98646902877,-0.054,0.974,0.07,192.0,0.0,0.0,0.0,0.0,0.0,0.0,0.0,0.0,0.0,1676477805.444219,0
368,112.0,21506.088555584975,36171.78334853451,-44591.35020868185,-39803.673601588445,176102.64433653885,7386.916266312154,-43142.93481623349,-17275.976213929203,-0.054,0.974,0.07,192.0,0.0,0.0,0.0,0.0,0.0,0.0,0.0,0.0,0.0,1676477805.444249,0
369,113.0,21403.762269468578,36100.59304244436,-44685.629866794334,-39827.67937513344,176011.76214358356,7329.159358639641,-43592.94248735219,-17723.458137924452,-0.054,0.974,0.07,192.0,0.0,0.0,0.0,0.0,0.0,0.0,0.0,0.0,0.0,1676477805.444278,0
370,114.0,21354.834300855913,36023.27835837345,-44668.933113686224,-39802.4442556434,176060.24307730712,7351.287585650395,-43718.089904557455,-17878.556892699828,-0.054,0.974,0.07,192.0,0.0,0.0,0.0,0.0,0.0,0.0,0.0,0.0,0.0,1676477805.444307,0
371,115.0,21446.67761882277,36082.15285326873,-44574.22877242909,-39775.75627276376,176199.11446560794,7400.081443796331,-43319.37948696369,-17525.89106868399,-0.054,0.974,0.07,192.0,0.0,0.0,0.0,0.0,0.0,0.0,0.0,0.0,0.0,1676477805.444336,0
372,116.0,21527.814451195532,36183.540366118,-44556.459135587116,-39781.47831934432,176217.48759955022,7404.708254898579,-43092.822205164695,-17239.36405651141,-0.056,0.976,0.07,192.0,254.0,64.0,30.0,128.0,2.0,48.0,0.0,0.0,0.0,1676477805.444365,0
373,117.0,21444.75536879961,36136.355833572845,-44647.475439009126,-39805.30527893368,176112.50145584362,7349.03005946041,-43489.54331750194,-17617.220296528376,-0.056,0.976,0.07,192.0,0.0,0.0,0.0,0.0,0.0,0.0,0.0,0.0,0.0,1676477805.444394,0
374,118.0,21370.212301041163,36041.94206499363,-44652.16930534474,-39781.567726322144,176116.7259355457,7359.445972376582,-43728.79639015155,-17885.01654684741,-0.056,0.976,0.07,192.0,0.0,0.0,0.0,0.0,0.0,0.0,0.0,0.0,0.0,1676477805.444423,0
375,119.0,21435.52409833957,36072.51925140849,-44567.702063048135,-39759.77477547822,176215.00655591566,7404.238868265018,-43390.7933104984,-17589.99587178181,-0.056,0.976,0.07,192.0,0.0,0.0,0.0,0.0,0.0,0.0,0.0,0.0,0.0,1676477805.444452,0
376,120.0,21528.21678259573,36174.91259275825,-44537.59426326684,-39766.480298814815,176239.72758528325,7418.074598082852,-43079.72408291389,-17235.385445998367,-0.056,0.976,0.07,192.0,0.0,0.0,0.0,0.0,0.0,0.0,0.0,0.0,0.0,1676477805.44448,0
377,121.0,21466.90594755482,36150.86211572434,-44631.65040393477,-39800.43259864242,176154.45568018625,7358.149571198174,-43400.20339491408,-17519.185545347398,-0.056,0.976,0.07,192.0,0.0,0.0,0.0,0.0,0.0,0.0,0.0,0.0,0.0,1676477805.444509,0
378,122.0,21363.350315493386,36040.13157369275,-44670.29657009799,-39792.85535727208,176134.6296828544,7342.480998335004,-43738.83232341198,-17887.9222736266,-0.056,0.976,0.07,192.0,0.0,0.0,0.0,0.0,0.0,0.0,0.0,0.0,0.0,1676477805.5065,0
379,123.0,21411.630083516848,36053.27439943247,-44589.42795865869,-39761.56291503464,176233.55850381358,7393.912362326666,-43470.969017859585,-17667.355259341628,-0.056,0.976,0.07,192.0,0.0,0.0,0.0,0.0,0.0,0.0,0.0,0.0,0.0,1676477805.506542,0
380,124.0,21514.6269219669,36154.63956053729,-44539.09183014534,-39762.702854001865,176265.27562919565,7419.192185305618,-43092.129301086585,-17265.627356246398,-0.056,0.976,0.07,192.0,0.0,0.0,0.0,0.0,0.0,0.0,0.0,0.0,0.0,1676477805.506573,0
381,125.0,21492.83397112298,36171.29161015649,-44614.283098493,-39791.4919008603,176179.80255839857,7369.548960870381,-43313.07629502729,-17435.858242018014,-0.056,0.976,0.07,192.0,0.0,0.0,0.0,0.0,0.0,0.0,0.0,0.0,0.0,1676477805.506603,0
382,126.0,21390.597091984404,36071.42401593018,-44663.50163978358,-39782.10416818907,176149.38183419488,7349.968832727532,-43718.4698842132,-17869.86206410671,-0.062,0.982,0.08,192.0,254.0,16.0,30.0,176.0,2.0,128.0,0.0,0.0,0.0,1676477805.506632,0
383,127.0,21419.967284198676,36065.053768760416,-44587.282191190985,-39744.374423548514,176250.81405053308,7400.349664729794,-43526.8707307423,-17718.98778903339,-0.062,0.982,0.08,192.0,0.0,0.0,0.0,0.0,0.0,0.0,0.0,0.0,0.0,1676477805.506662,0
384,128.0,21530.31784657453,36165.07782519791,-44515.86836765628,-39737.735955445285,176324.50775200222,7434.011391879487,-43099.550080245746,-17299.222028162723,-0.062,0.982,0.08,192.0,0.0,0.0,0.0,0.0,0.0,0.0,0.0,0.0,0.0,1676477805.506707,0
385,129.0,21535.704616988256,36211.07771528694,-44576.866278274814,-39769.25191512727,176254.7032540683,7395.924019327644,-43211.86759613366,-17344.037275795614,-0.062,0.982,0.08,192.0,0.0,0.0,0.0,0.0,0.0,0.0,0.0,0.0,0.0,1676477805.506735,0
386,130.0,21420.52607781006,36109.176112315195,-44652.504581511566,-39777.589115809096,176189.81613991453,7358.283681664906,-43671.1065377124,-17823.30338040631,-0.062,0.982,0.08,192.0,0.0,0.0,0.0,0.0,0.0,0.0,0.0,0.0,0.0,1676477805.50676,0
387,131.0,21416.681577763746,36069.05473101792,-44597.899269807254,-39750.52115327372,176260.3582454155,7393.8453070933,-43583.64416165878,-17776.767048450358,-0.062,0.982,0.08,192.0,0.0,0.0,0.0,0.0,0.0,0.0,0.0,0.0,0.0,1676477805.506785,0
388,132.0,21522.539439504082,36151.77853724701,-44514.52726298896,-39739.18881883488,176348.02178716921,7429.831615666344,-43149.72974654791,-17365.8972818729,-0.062,0.982,0.08,192.0,0.0,0.0,0.0,0.0,0.0,0.0,0.0,0.0,0.0,1676477805.50681,0
389,133.0,21555.21768989774,36216.464485700664,-44548.92659770568,-39763.2839993577,176299.13852204545,7402.406025219682,-43138.419763853526,-17284.201655888755,-0.062,0.982,0.08,192.0,0.0,0.0,0.0,0.0,0.0,0.0,0.0,0.0,0.0,1676477805.506834,0
390,134.0,21436.842851262434,36122.34128979937,-44637.93124412671,-39782.79707226719,176203.4507040323,7349.477094349515,-43606.10766483637,-17763.28894654381,-0.062,0.982,0.08,192.0,0.0,0.0,0.0,0.0,0.0,0.0,0.0,0.0,0.0,1676477805.506859,0
391,135.0,21398.57666475495,36053.94495176613,-44608.315182723425,-39760.55708653416,176246.41075687538,7374.712213839557,-43640.283482108534,-17831.707636321502,-0.062,0.982,0.08,192.0,0.0,0.0,0.0,0.0,0.0,0.0,0.0,0.0,0.0,1676477805.506884,0
392,136.0,21488.16245653182,36114.31701353991,-44525.90430091671,-39752.130478874504,176327.63699622598,7413.1348625582295,-43223.84813116171,-17449.31399218011,-0.054,0.974,0.084,192.0,254.0,80.0,30.0,112.0,2.0,160.0,0.0,0.0,0.0,1676477805.506909,0
393,137.0,21539.79498622358,36194.00098252308,-44548.63602502776,-39780.673656543935,176288.67790564036,7396.102833283286,-43107.440246038466,-17258.497149765153,-0.054,0.974,0.084,192.0,0.0,0.0,0.0,0.0,0.0,0.0,0.0,0.0,0.0,1676477805.563929,0
394,138.0,21427.14219416883,36117.31214729693,-44657.91370366976,-39816.88348256153,176180.65192468787,7333.227376130507,-43563.169963737724,-17699.36295740163,-0.054,0.974,0.084,192.0,0.0,0.0,0.0,0.0,0.0,0.0,0.0,0.0,0.0,1676477805.563973,0
395,139.0,21350.073379286932,36020.730259505544,-44663.56869501695,-39811.34024993661,176189.95025038128,7337.630669788203,-43723.38726799336,-17879.048631077843,-0.054,0.974,0.084,192.0,0.0,0.0,0.0,0.0,0.0,0.0,0.0,0.0,0.0,1676477805.564004,0
396,140.0,21421.822478988466,36065.00906527151,-44580.576667854395,-39797.01278174076,176279.13371075795,7379.093155752797,-43348.86143790024,-17546.097045671588,-0.054,0.974,0.084,192.0,0.0,0.0,0.0,0.0,0.0,0.0,0.0,0.0,0.0,1676477805.564035,0
397,141.0,21492.342232744963,36154.751319259565,-44578.78852829797,-39818.336345951124,176259.62063784848,7373.1028882387745,-43127.40035383706,-17269.851835948448,-0.054,0.974,0.084,192.0,0.0,0.0,0.0,0.0,0.0,0.0,0.0,0.0,0.0,1676477805.564064,0
398,142.0,21393.14519085231,36095.83212087538,-44694.79408202101,-39863.576276728665,176139.99410152365,7297.643398957658,-43530.670527299706,-17650.144416111045,-0.054,0.974,0.084,192.0,0.0,0.0,0.0,0.0,0.0,0.0,0.0,0.0,0.0,1676477805.564094,0
399,143.0,21294.1269629153,35985.280392799425,-44725.43832366924,-39859.12827958206,176118.312909402,7287.316893019306,-43802.9371265098,-17947.98141097801,-0.054,0.974,0.084,192.0,0.0,0.0,0.0,0.0,0.0,0.0,0.0,0.0,0.0,1676477805.564123,0
400,144.0,21354.9907630671,36008.079172143836,-44644.949691885675,-39838.09528804962,176207.60812850096,7328.198233628063,-43484.58123023286,-17675.178369900987,-0.054,0.974,0.084,192.0,0.0,0.0,0.0,0.0,0.0,0.0,0.0,0.0,0.0,1676477805.564152,0
401,145.0,21447.14700545633,36102.38118200078,-44606.571746655914,-39844.756107897294,176246.1425359419,7341.229300645507,-43156.12234546213,-17308.453298622764,-0.054,0.974,0.084,192.0,0.0,0.0,0.0,0.0,0.0,0.0,0.0,0.0,0.0,1676477805.564181,0
402,146.0,21385.9479291377,36079.22477474508,-44702.52778560255,-39887.26912585129,176141.20109572425,7273.414107968106,-43467.41509049119,-17582.418630411463,-0.058,0.97,0.08,192.0,254.0,48.0,30.0,80.0,2.0,128.0,0.0,0.0,0.0,1676477805.56421,0
403,147.0,21266.857834679824,35956.0890145408,-44755.18849553925,-39892.65589626502,176092.54134804505,7246.457904155005,-43829.893330322906,-17969.21556821055,-0.058,0.97,0.08,192.0,0.0,0.0,0.0,0.0,0.0,0.0,0.0,0.0,0.0,1676477805.56424,0
404,148.0,21294.59634954886,35948.511773170445,-44689.831994751934,-39878.12726236907,176168.1349477929,7281.460735972016,-43586.99692332708,-17770.08387685822,-0.058,0.97,0.08,192.0,0.0,0.0,0.0,0.0,0.0,0.0,0.0,0.0,0.0,1676477805.564269,0
405,149.0,21395.514475764572,36047.440594129635,-44641.373412772824,-39883.89401243854,176214.42541055984,7301.465547259516,-43207.129026309136,-17376.335546533533,-0.058,0.97,0.08,192.0,0.0,0.0,0.0,0.0,0.0,0.0,0.0,0.0,0.0,1676477805.564298,0
406,150.0,21364.959641094167,36057.923562279175,-44722.24202421213,-39922.20490243494,176130.7181275747,7246.614366366192,-43412.8991857647,-17527.27687684022,-0.058,0.97,0.08,192.0,0.0,0.0,0.0,0.0,0.0,0.0,0.0,0.0,0.0,1676477805.564344,0
407,151.0,21247.59063095935,35947.28242722541,-44784.11165286442,-39927.122286215104,176076.62690599286,7215.6124968066815,-43835.59302515901,-17975.854036313776,-0.058,0.97,0.08,192.0,0.0,0.0,0.0,0.0,0.0,0.0,0.0,0.0,0.0,1676477805.564371,0
408,152.0,21267.72955271358,35931.01035726194,-44717.39169566533,-39896.58980328916,176155.88619183138,7259.041936283343,-43666.367967887876,-17848.136168496152,-0.058,0.97,0.08,192.0,0.0,0.0,0.0,0.0,0.0,0.0,0.0,0.0,0.0,1676477805.624218,0
409,153.0,21374.570891209947,36024.23948338503,-44646.84959016438,-39887.15736712902,176227.21060838827,7294.715320434013,-43242.3553755707,-17431.566707082595,-0.058,0.97,0.08,192.0,0.0,0.0,0.0,0.0,0.0,0.0,0.0,0.0,0.0,1676477805.624258,0
410,154.0,21383.46688550316,36074.642667131746,-44698.07978845594,-39908.54798657275,176149.69475861726,7267.692061387546,-43329.124847546205,-17446.140044467455,-0.058,0.97,0.08,192.0,0.0,0.0,0.0,0.0,0.0,0.0,0.0,0.0,0.0,1676477805.624287,0
411,155.0,21275.59736676185,35980.966506119556,-44766.54318172255,-39909.6208703066,176045.2450567776,7236.220805194474,-43781.2335826437,-17909.06702388132,-0.058,0.97,0.08,192.0,0.0,0.0,0.0,0.0,0.0,0.0,0.0,0.0,0.0,1676477805.624313,0
412,156.0,21268.8694916808,35938.49819165447,-44714.39656190832,-39879.55777401421,176100.2526998821,7273.39175622365,-43715.69826790074,-17874.555930442326,-0.052000000000000005,0.974,0.08,192.0,254.0,96.0,30.0,112.0,2.0,128.0,0.0,0.0,0.0,1676477805.624338,0
413,157.0,21381.03054535753,36027.39107935323,-44622.84381661938,-39856.17784931396,176197.72865745172,7323.705532992546,-43276.59824807623,-17458.724076595794,-0.052000000000000005,0.974,0.08,192.0,0.0,0.0,0.0,0.0,0.0,0.0,0.0,0.0,0.0,1676477805.624363,0
414,158.0,21426.829269746457,36105.06339133542,-44648.77184018753,-39869.90182040952,176156.08735753148,7308.483995018482,-43239.494352280424,-17347.121816530445,-0.052000000000000005,0.974,0.08,192.0,0.0,0.0,0.0,0.0,0.0,0.0,0.0,0.0,0.0,1676477805.624388,0
415,159.0,21330.73912033309,36031.39204161073,-44729.03695452654,-39876.428529790464,176066.88154541035,7263.959320063511,-43699.20268049272,-17807.2548278874,-0.052000000000000005,0.974,0.08,192.0,0.0,0.0,0.0,0.0,0.0,0.0,0.0,0.0,0.0,1676477805.624412,0
416,160.0,21303.760564775537,35973.545726960394,-44692.067169197464,-39841.895084607015,176118.5811303355,7299.923276892099,-43738.54175073406,-17880.34503225625,-0.052000000000000005,0.974,0.08,192.0,0.0,0.0,0.0,0.0,0.0,0.0,0.0,0.0,0.0,1676477805.624437,0
417,161.0,21398.978996155143,36044.33370165035,-44602.101397764854,-39819.0963052626,176209.15039886837,7346.839588503789,-43322.79930386535,-17501.505315483253,-0.052000000000000005,0.974,0.08,192.0,0.0,0.0,0.0,0.0,0.0,0.0,0.0,0.0,0.0,1676477805.624461,0
418,162.0,21468.82819757798,36140.51325804154,-44603.420150687714,-39826.092401277114,176188.25151780268,7346.414905359138,-43172.237953214404,-17280.22304537571,-0.052000000000000005,0.974,0.08,192.0,0.0,0.0,0.0,0.0,0.0,0.0,0.0,0.0,0.0,1676477805.624486,0
419,163.0,21374.794408654503,36078.08483577786,-44698.83974776742,-39849.85230563311,176088.00394392063,7289.529715720381,-43608.3428392819,-17707.096660983167,-0.052000000000000005,0.974,0.08,192.0,0.0,0.0,0.0,0.0,0.0,0.0,0.0,0.0,0.0,1676477805.624511,0
420,164.0,21318.892695771778,35999.67491622864,-44683.64056153781,-39819.99037504082,176119.89988325833,7312.797881698357,-43764.514477791134,-17898.718166198512,-0.052000000000000005,0.974,0.08,192.0,0.0,0.0,0.0,0.0,0.0,0.0,0.0,0.0,0.0,1676477805.624536,0
421,165.0,21401.929426423245,36049.116974963785,-44591.99840927105,-39795.82813928463,176220.23686411823,7362.21758868904,-43380.42210107113,-17566.10185695909,-0.052000000000000005,0.974,0.08,192.0,0.0,0.0,0.0,0.0,0.0,0.0,0.0,0.0,0.0,1676477805.62456,0
422,166.0,21488.408325720826,36149.990397690584,-44577.000388741544,-39808.88155804653,176229.11050666697,7369.727774826023,-43126.796856736764,-17266.61083300243,-0.06,0.982,0.078,192.0,254.0,32.0,30.0,176.0,2.0,112.0,0.0,0.0,0.0,1676477805.624585,0
423,167.0,21418.71558650918,36115.456952507135,-44665.91562818475,-39837.93882583843,176127.79004905105,7315.278925332896,-43499.199271106634,-17618.136718051042,-0.06,0.982,0.078,192.0,0.0,0.0,0.0,0.0,0.0,0.0,0.0,0.0,0.0,1676477805.684479,0
424,168.0,21339.45630067066,36021.33375660584,-44676.4432998232,-39817.66579361747,176123.6326245824,7318.4528730455495,-43764.42507081331,-17916.35369257375,-0.06,0.982,0.078,192.0,0.0,0.0,0.0,0.0,0.0,0.0,0.0,0.0,0.0,1676477805.684491,0
425,169.0,21407.316196836975,36050.36867265328,-44586.90221153524,-39789.70376130388,176218.13580013943,7365.570350357337,-43442.35878495679,-17642.366009040597,-0.06,0.982,0.078,192.0,0.0,0.0,0.0,0.0,0.0,0.0,0.0,0.0,0.0,1676477805.684497,0
426,170.0,21509.642482953368,36156.494755327076,-44544.38919358125,-39792.31891540514,176251.73047205573,7382.960007543566,-43104.31100181473,-17274.41159181733,-0.06,0.982,0.078,192.0,0.0,0.0,0.0,0.0,0.0,0.0,0.0,0.0,0.0,1676477805.684503,0
427,171.0,21464.469607409195,36154.01371169254,-44627.627089932816,-39821.64440413051,176163.10580529046,7330.411056329139,-43392.22382214354,-17519.073786625122,-0.06,0.982,0.078,192.0,0.0,0.0,0.0,0.0,0.0,0.0,0.0,0.0,0.0,1676477805.684513,0
428,172.0,21361.56217593696,36050.100451719816,-44670.52008754255,-39816.324688950146,176134.6296828544,7316.038884644376,-43750.43287878429,-17903.523791256404,-0.06,0.982,0.078,192.0,0.0,0.0,0.0,0.0,0.0,0.0,0.0,0.0,0.0,1676477805.684519,0
429,173.0,21400.342452566918,36055.46487038909,-44597.51929015151,-39786.6415723135,176213.95602392626,7363.692803823091,-43509.70459100063,-17704.816783048725,-0.06,0.982,0.078,192.0,0.0,0.0,0.0,0.0,0.0,0.0,0.0,0.0,0.0,1676477805.684525,0
430,174.0,21509.866000397924,36158.99815070607,-44536.72254523308,-39778.639647798496,176268.29311469712,7397.555696672881,-43111.93294667399,-17295.489286838685,-0.06,0.982,0.078,192.0,0.0,0.0,0.0,0.0,0.0,0.0,0.0,0.0,0.0,1676477805.68453,0
431,175.0,21488.9224158433,36178.377113148825,-44615.3336304824,-39814.06716276016,176189.4808637477,7350.54997808337,-43298.212384964514,-17418.088605176046,-0.058,0.978,0.082,192.0,254.0,48.0,30.0,144.0,2.0,144.0,0.0,0.0,0.0,1676477805.684536,0
432,176.0,21380.0470686015,36073.88270782027,-44677.91851495725,-39813.731886593334,176144.39739518135,7325.806596971345,-43729.46694248521,-17865.615232660202,-0.058,0.978,0.082,192.0,0.0,0.0,0.0,0.0,0.0,0.0,0.0,0.0,0.0,1676477805.684542,0
433,177.0,21390.261815817576,36047.46294587409,-44617.79232237248,-39791.62601132703,176220.08040190703,7363.804562545367,-43579.15146102327,-17753.431827239016,-0.058,0.978,0.082,192.0,0.0,0.0,0.0,0.0,0.0,0.0,0.0,0.0,0.0,1676477805.684547,0
434,178.0,21498.488962470172,36145.36358658833,-44537.05782139991,-39777.522060575735,176299.33968774555,7405.13293804323,-43146.667557557535,-17337.063531525557,-0.058,0.978,0.082,192.0,0.0,0.0,0.0,0.0,0.0,0.0,0.0,0.0,0.0,1676477805.684553,0
435,179.0,21517.666759212825,36205.26626172856,-44581.20251669914,-39798.01861024125,176238.83351550502,7378.132030741219,-43206.68199142003,-17328.56986863254,-0.058,0.978,0.082,192.0,0.0,0.0,0.0,0.0,0.0,0.0,0.0,0.0,0.0,1676477805.684559,0
436,180.0,21405.99744391411,36109.466684993116,-44662.11583162735,-39805.81936905615,176159.64128489987,7334.702591264558,-43673.4087673913,-17806.919551720566,-0.058,0.978,0.082,192.0,0.0,0.0,0.0,0.0,0.0,0.0,0.0,0.0,0.0,1676477805.684565,0
437,181.0,21392.541693752017,36062.61742861479,-44618.26170900604,-39774.19165065189,176217.88993095042,7371.582969615814,-43630.51576978157,-17792.100345146697,-0.058,0.978,0.082,192.0,0.0,0.0,0.0,0.0,0.0,0.0,0.0,0.0,0.0,1676477805.68457,0
438,182.0,21490.755258888636,36138.38984231828,-44539.896492945736,-39762.79226097969,176294.35524873203,7410.586763690325,-43195.68493314802,-17388.53959900613,-0.058,0.978,0.082,192.0,0.0,0.0,0.0,0.0,0.0,0.0,0.0,0.0,0.0,1676477805.744865,0
439,183.0,21533.849422198466,36212.575282165446,-44565.6680543027,-39780.673656543935,176265.34268442902,7396.8180891058555,-43137.503342330856,-17266.40966730233,-0.058,0.978,0.082,192.0,0.0,0.0,0.0,0.0,0.0,0.0,0.0,0.0,0.0,1676477805.74491,0
440,184.0,21417.642702775323,36123.34711829986,-44664.37335781734,-39805.21587195586,176173.11938680641,7339.843492489278,-43602.91136537926,-17739.305524743264,-0.058,0.978,0.082,192.0,0.0,0.0,0.0,0.0,0.0,0.0,0.0,0.0,0.0,1676477805.744941,0
441,185.0,21374.32502202094,36052.64855058772,-44637.57361621543,-39779.37725536552,176205.52941626663,7365.8385712908,-43670.72655805666,-17840.29070619234,-0.058,0.978,0.078,192.0,254.0,48.0,30.0,144.0,2.0,112.0,0.0,0.0,0.0,1676477805.744971,0
442,186.0,21466.414209176804,36112.95355712814,-44551.206475640116,-39763.01577842424,176299.0044115787,7406.3846357327275,-43260.884971724154,-17473.565634914117,-0.058,0.978,0.078,192.0,0.0,0.0,0.0,0.0,0.0,0.0,0.0,0.0,0.0,1676477805.745001,0
443,187.0,21539.59382052348,36204.97568905064,-44550.379461095275,-39776.69504603089,176286.82271085057,7402.763653130967,-43091.16817607501,-17244.057922847023,-0.058,0.978,0.078,192.0,0.0,0.0,0.0,0.0,0.0,0.0,0.0,0.0,0.0,1676477805.745029,0
444,188.0,21443.72718855467,36140.89323769727,-44649.442392521196,-39805.93112777843,176190.55374748158,7341.162245412141,-43521.014573695014,-17665.45536106293,-0.058,0.978,0.078,192.0,0.0,0.0,0.0,0.0,0.0,0.0,0.0,0.0,0.0,1676477805.745058,0
445,189.0,21370.257004530074,36047.97703599656,-44653.66687222324,-39792.609488083064,176206.71405872275,7346.079629192309,-43707.94221257475,-17884.457753236027,-0.058,0.978,0.078,192.0,0.0,0.0,0.0,0.0,0.0,0.0,0.0,0.0,0.0,1676477805.745087,0
446,190.0,21447.459929878703,36092.81463537391,-44564.59517056885,-39769.02839768272,176290.19782426333,7392.526554170437,-43343.76524016443,-17563.598461580095,-0.058,0.978,0.078,192.0,0.0,0.0,0.0,0.0,0.0,0.0,0.0,0.0,0.0,1676477805.745116,0
447,191.0,21534.095291387475,36193.2410232116,-44544.03156566997,-39779.31020013216,176279.7595596027,7397.309827483872,-43076.818356134696,-17241.867451890404,-0.058,0.978,0.078,192.0,0.0,0.0,0.0,0.0,0.0,0.0,0.0,0.0,0.0,1676477805.745145,0
448,192.0,21455.506557882614,36155.44422333768,-44641.55222672847,-39814.648308116,176165.65390415836,7331.439236574082,-43444.348090213316,-17583.983252523336,-0.058,0.978,0.078,192.0,0.0,0.0,0.0,0.0,0.0,0.0,0.0,0.0,0.0,1676477805.74519,0
449,193.0,21359.125835791332,36049.049919730416,-44666.98851191861,-39806.57932836763,176146.69962486025,7325.627783015702,-43737.2229978112,-17901.422727277604,-0.058,0.978,0.078,192.0,0.0,0.0,0.0,0.0,0.0,0.0,0.0,0.0,0.0,1676477805.745217,0
450,194.0,21410.892475949822,36062.48331814806,-44588.66799934721,-39788.429711869925,176228.14938165538,7365.257425934962,-43435.96618604257,-17643.05891311871,-0.058,0.978,0.078,192.0,0.0,0.0,0.0,0.0,0.0,0.0,0.0,0.0,0.0,1676477805.745242,0
451,195.0,21516.88444815689,36171.22455492312,-44539.62827201227,-39785.52398509073,176265.7003123403,7391.587780903314,-43087.167213817505,-17267.773123714105,-0.052000000000000005,0.986,0.076,192.0,254.0,96.0,30.0,208.0,2.0,96.0,0.0,0.0,0.0,1676477805.745267,0
452,196.0,21471.331592956973,36168.20706942166,-44627.42592423272,-39820.97385179685,176172.7841106396,7334.903756964655,-43360.46199327255,-17498.21960904832,-0.052000000000000005,0.986,0.076,192.0,0.0,0.0,0.0,0.0,0.0,0.0,0.0,0.0,0.0,1676477805.745292,0
453,197.0,21352.599126410383,36046.77004179598,-44689.31790462946,-39829.176942011945,176129.0864502295,7302.069044359809,-43747.30363456054,-17909.938741915077,-0.052000000000000005,0.986,0.076,192.0,0.0,0.0,0.0,0.0,0.0,0.0,0.0,0.0,0.0,1676477805.804321,0
454,198.0,21381.0976005909,36034.722451534566,-44620.85451136286,-39806.601680112086,176204.41182904385,7341.609280301247,-43530.447009855154,-17730.722454872426,-0.052000000000000005,0.986,0.076,192.0,0.0,0.0,0.0,0.0,0.0,0.0,0.0,0.0,0.0,1676477805.804361,0
455,199.0,21475.846645336944,36122.788324688474,-44569.35609213783,-39811.02732551424,176250.81405053308,7363.26812067844,-43140.31966213223,-17328.391054676897,-0.052000000000000005,0.986,0.076,192.0,0.0,0.0,0.0,0.0,0.0,0.0,0.0,0.0,0.0,1676477805.804389,0
456,200.0,21453.00316250362,36139.84270570787,-44648.32480529843,-39851.752203911805,176176.56155545256,7311.21090784203,-43317.36782996271,-17444.061332233112,-0.052000000000000005,0.986,0.076,192.0,0.0,0.0,0.0,0.0,0.0,0.0,0.0,0.0,0.0,1676477805.804415,0
457,201.0,21331.253210455565,36026.78758225293,-44719.62687011086,-39858.77065167078,176125.84544728344,7276.968035336499,-43758.88183818839,-17911.771584960414,-0.052000000000000005,0.986,0.076,192.0,0.0,0.0,0.0,0.0,0.0,0.0,0.0,0.0,0.0,1676477805.804439,0
458,202.0,21330.493251144082,35986.86736665575,-44666.764994474055,-39837.13416303804,176177.96971535322,7310.316838063817,-43632.97446167165,-17825.76207229639,-0.052000000000000005,0.986,0.076,192.0,0.0,0.0,0.0,0.0,0.0,0.0,0.0,0.0,0.0,1676477805.804465,0
459,203.0,21420.414319087784,36056.78362331195,-44611.31031648044,-39847.706538165396,176219.99099492922,7323.861995203733,-43225.0551253623,-17433.667771061395,-0.052000000000000005,0.986,0.076,192.0,0.0,0.0,0.0,0.0,0.0,0.0,0.0,0.0,0.0,1676477805.804489,0
460,204.0,21434.406511116806,36106.85153089184,-44664.8427444509,-39876.98732340185,176152.66754062983,7289.619122698203,-43282.767329545895,-17423.564782567595,-0.052000000000000005,0.986,0.076,192.0,0.0,0.0,0.0,0.0,0.0,0.0,0.0,0.0,0.0,1676477805.804514,0
461,205.0,21313.46122186914,36004.994631409005,-44754.04855657203,-39894.24287012135,176073.92234491376,7239.595918607226,-43749.18118109479,-17903.724956956503,-0.058,0.98,0.076,192.0,254.0,48.0,30.0,160.0,2.0,96.0,0.0,0.0,0.0,1676477805.804539,0
462,206.0,21290.751849502547,35947.52829641441,-44714.933003775244,-39868.94069539794,176134.40616540983,7270.396622466639,-43728.170541306805,-17915.97371291801,-0.058,0.98,0.076,192.0,0.0,0.0,0.0,0.0,0.0,0.0,0.0,0.0,0.0,1676477805.804564,0
463,207.0,21389.770077439556,36022.16077115068,-44632.25390103506,-39856.311959780694,176222.2932246081,7309.981561896988,-43303.35328618924,-17522.225382593322,-0.058,0.98,0.076,192.0,0.0,0.0,0.0,0.0,0.0,0.0,0.0,0.0,0.0,1676477805.804588,0
464,208.0,21431.321970381974,36094.982754586075,-44662.47345953864,-39882.75407347132,176177.00859034166,7288.68034943108,-43235.292224322824,-17382.59403498102,-0.058,0.98,0.076,192.0,0.0,0.0,0.0,0.0,0.0,0.0,0.0,0.0,0.0,1676477805.804613,0
465,209.0,21319.40678589425,36009.621442511256,-44761.37992875337,-39907.16217841652,176081.74545547314,7228.956488246499,-43699.82852933747,-17844.537537638847,-0.058,0.98,0.076,192.0,0.0,0.0,0.0,0.0,0.0,0.0,0.0,0.0,0.0,1676477805.804638,0
466,210.0,21273.87628243879,35936.710052098046,-44735.831884840954,-39882.03881764875,176126.11366821692,7252.448171669027,-43779.959533209745,-17955.133969203707,-0.058,0.98,0.076,192.0,0.0,0.0,0.0,0.0,0.0,0.0,0.0,0.0,0.0,1676477805.804663,0
467,211.0,21368.401809740284,35999.78667495092,-44644.50265699657,-39863.19629707293,176221.84618971898,7299.252724558441,-43372.4872317895,-17590.91229330448,-0.058,0.98,0.076,192.0,0.0,0.0,0.0,0.0,0.0,0.0,0.0,0.0,0.0,1676477805.804688,0
468,212.0,21444.509499610605,36096.52502495349,-44642.55805522896,-39876.20501234591,176217.42054431685,7299.990332125465,-43187.191270255,-17341.690342627804,-0.058,0.98,0.076,192.0,0.0,0.0,0.0,0.0,0.0,0.0,0.0,0.0,0.0,1676477805.864079,0
469,213.0,21351.615649654348,36036.33177713535,-44743.67734714477,-39906.82690224968,176116.34595588993,7239.864139540689,-43605.459464247164,-17747.441559724994,-0.058,0.98,0.076,192.0,0.0,0.0,0.0,0.0,0.0,0.0,0.0,0.0,0.0,1676477805.864121,0
470,214.0,21284.806285477436,35947.93062781461,-44744.8619896009,-39886.41975956199,176117.68706055728,7249.520093145382,-43805.21700444425,-17974.624690368735,-0.058,0.98,0.076,192.0,0.0,0.0,0.0,0.0,0.0,0.0,0.0,0.0,0.0,1676477805.864167,0
471,215.0,21375.152036565785,36000.680744729136,-44649.420040776735,-39856.110794080596,176216.21355011626,7301.219678070507,-43442.26937797897,-17658.705134237425,-0.058,0.98,0.07200000000000001,192.0,254.0,48.0,30.0,160.0,2.0,64.0,0.0,0.0,0.0,1676477805.864195,0
472,216.0,21468.492921411147,36109.936071626675,-44617.479397950105,-39854.68028243545,176244.6449690634,7319.324591079306,-43150.62381632612,-17322.691359840795,-0.058,0.98,0.07200000000000001,192.0,0.0,0.0,0.0,0.0,0.0,0.0,0.0,0.0,0.0,1676477805.86422,0
473,217.0,21390.574740239947,36074.10622526482,-44706.41698913777,-39878.73075946936,176157.51786917663,7268.630834654669,-43493.27605882598,-17628.82085190068,-0.058,0.98,0.07200000000000001,192.0,0.0,0.0,0.0,0.0,0.0,0.0,0.0,0.0,0.0,1676477805.864245,0
474,218.0,21286.68383201168,35961.90046809918,-44728.23229172615,-39858.43537550395,176145.4255754263,7273.7270323904795,-43792.677675804814,-17955.17867269262,-0.058,0.98,0.07200000000000001,192.0,0.0,0.0,0.0,0.0,0.0,0.0,0.0,0.0,0.0,1676477805.86427,0
475,219.0,21330.850879055368,35972.852822882276,-44644.949691885675,-39827.61231990008,176241.56042832858,7326.298335349362,-43493.61133499281,-17701.396966147062,-0.058,0.98,0.07200000000000001,192.0,0.0,0.0,0.0,0.0,0.0,0.0,0.0,0.0,0.0,1676477805.864295,0
476,220.0,21429.511479081095,36078.196594500136,-44594.83708081688,-39823.61135764258,176288.20851900682,7353.902739751666,-43133.14475216207,-17310.576714346018,-0.058,0.98,0.07200000000000001,192.0,0.0,0.0,0.0,0.0,0.0,0.0,0.0,0.0,0.0,1676477805.864319,0
477,221.0,21373.587414453916,36069.27824846247,-44675.772747489544,-39852.22159054537,176208.43514304582,7307.388759540172,-43381.51733654944,-17508.74728068677,-0.058,0.98,0.07200000000000001,192.0,0.0,0.0,0.0,0.0,0.0,0.0,0.0,0.0,0.0,1676477805.864344,0
478,222.0,21246.316581525396,35946.23189523601,-44727.42762892576,-39844.19731428591,176161.2729622451,7290.44613724305,-43766.414376069835,-17920.30995134234,-0.058,0.98,0.07200000000000001,192.0,0.0,0.0,0.0,0.0,0.0,0.0,0.0,0.0,0.0,1676477805.864369,0
479,223.0,21267.953070158135,35929.93747352809,-44652.48222976711,-39806.78049406773,176244.93554174132,7344.917338480633,-43549.93773102018,-17742.926507345022,-0.058,0.98,0.07200000000000001,192.0,0.0,0.0,0.0,0.0,0.0,0.0,0.0,0.0,0.0,1676477805.864393,0
480,224.0,21366.390152739306,36019.25504437149,-44585.85167954584,-39801.75135156529,176306.2687285267,7380.858943564766,-43137.16806616403,-17326.513508142652,-0.058,0.98,0.07200000000000001,192.0,0.0,0.0,0.0,0.0,0.0,0.0,0.0,0.0,0.0,1676477805.864418,0
481,225.0,21350.18513800921,36047.59705634083,-44650.80584893296,-39829.93690132343,176234.85490499198,7342.391591357183,-43282.52146035689,-17408.812631227094,-0.064,0.974,0.066,192.0,254.0,0.0,30.0,112.0,2.0,16.0,0.0,0.0,0.0,1676477805.864443,0
482,226.0,21217.0581480334,35934.27371195242,-44722.219672467676,-39830.585101912635,176186.2398608017,7314.362503810228,-43725.39892499434,-17871.046706562844,-0.064,0.974,0.066,192.0,0.0,0.0,0.0,0.0,0.0,0.0,0.0,0.0,0.0,1676477805.864468,0
483,227.0,21215.24765673252,35900.902557480644,-44666.630884007325,-39799.51617711975,176271.9140972989,7356.74141129749,-43607.20290031468,-17787.451182299996,-0.064,0.974,0.066,192.0,0.0,0.0,0.0,0.0,0.0,0.0,0.0,0.0,0.0,1676477805.92422,0
484,228.0,21315.338768403384,35986.8450149113,-44589.8749935478,-39788.02738046973,176360.35995010854,7396.482812939026,-43174.5401828933,-17371.351107519997,-0.064,0.974,0.066,192.0,0.0,0.0,0.0,0.0,0.0,0.0,0.0,0.0,0.0,1676477805.924261,0
485,229.0,21323.27363768502,36034.923617234665,-44633.751467913564,-39814.46949416036,176311.74490591825,7368.833705047811,-43204.826796630245,-17329.933325044316,-0.064,0.974,0.066,192.0,0.0,0.0,0.0,0.0,0.0,0.0,0.0,0.0,0.0,1676477805.924289,0
486,230.0,21207.13397349524,35944.30964521285,-44717.99519276562,-39828.327575722644,176233.2008759023,7320.442178302072,-43677.342674415435,-17815.770842524867,-0.064,0.974,0.066,192.0,0.0,0.0,0.0,0.0,0.0,0.0,0.0,0.0,0.0,1676477805.924315,0
487,231.0,21187.151513952198,35893.19120564356,-44672.285875354515,-39795.96224975136,176295.58459467706,7356.540245597393,-43666.502078354606,-17838.703732336013,-0.064,0.974,0.066,192.0,0.0,0.0,0.0,0.0,0.0,0.0,0.0,0.0,0.0,1676477805.924341,0
488,232.0,21296.138619916277,35976.31734327285,-44572.6194468283,-39766.0332639257,176408.393848943,7410.22913577904,-43223.95988988398,-17428.34805588103,-0.064,0.974,0.066,192.0,0.0,0.0,0.0,0.0,0.0,0.0,0.0,0.0,0.0,1676477805.924365,0
489,233.0,21359.28229800252,36064.89730654923,-44581.269571932506,-39775.93508671941,176389.70779057837,7407.5022229554925,-43117.654993254546,-17254.831463674484,-0.064,0.974,0.066,192.0,0.0,0.0,0.0,0.0,0.0,0.0,0.0,0.0,0.0,1676477805.92439,0
490,234.0,21254.989058374056,35990.51070100197,-44678.097328912896,-39801.34902016509,176297.77506563367,7350.237053660996,-43573.29530397598,-17708.21424820593,-0.064,0.974,0.066,192.0,0.0,0.0,0.0,0.0,0.0,0.0,0.0,0.0,0.0,1676477805.924415,0
