,packet,eeg1,eeg2,eeg3,eeg4,eeg5,eeg6,eeg7,eeg8,accel1,accel2,accel3,other1,other2,other3,other4,other5,other6,other7,analog1,analog2,analog3,timestamp,marker
0,0.0,0.0,0.0,0.0,0.0,0.0,0.0,0.0,0.0,-0.022,0.9460000000000001,0.088,192.0,255.0,80.0,29.0,144.0,2.0,192.0,0.0,0.0,0.0,1676477934.403095,1
1,1.0,23815.917827596408,41210.648859816654,-40659.365434570966,-36673.5576598117,187500.0,8750.015050174601,-37965.689655028546,-14783.130858317716,-0.022,0.9460000000000001,0.088,192.0,0.0,0.0,0.0,0.0,0.0,0.0,0.0,0.0,0.0,1676477934.460531,1
2,2.0,24023.163202186013,41385.59596366835,-40543.20341863673,-36642.75695595228,187500.0,8783.229742435187,-37470.66557057686,-14111.684454880293,-0.022,0.9460000000000001,0.088,192.0,0.0,0.0,0.0,0.0,0.0,0.0,0.0,0.0,0.0,1676477934.460571,1
3,3.0,24005.170047899494,41409.57938546889,-40647.07197512055,-36699.59744210213,187500.0,8725.91986965178,-37671.60775323007,-14262.558729953615,-0.022,0.9460000000000001,0.088,192.0,0.0,0.0,0.0,0.0,0.0,0.0,0.0,0.0,0.0,1676477934.4606,1
4,4.0,23786.99467027124,41227.83735130279,-40775.683912716384,-36735.31552974171,187500.0,8706.026817086557,-38203.735733477566,-14929.534784499978,-0.022,0.9460000000000001,0.088,192.0,0.0,0.0,0.0,0.0,0.0,0.0,0.0,0.0,0.0,1676477934.460625,1
5,5.0,23774.79061779864,41177.23300185597,-40702.50430136971,-36697.92106126798,187500.0,8753.323108353987,-38080.197641873085,-14823.945143693109,-0.022,0.9460000000000001,0.088,192.0,0.0,0.0,0.0,0.0,0.0,0.0,0.0,0.0,0.0,1676477934.46065,1
6,6.0,23986.394582557034,41349.45319288412,-40566.15866019233,-36656.5032787923,187500.0,8785.93430351428,-37554.10463262852,-14140.652315694371,-0.022,0.9460000000000001,0.088,192.0,0.0,0.0,0.0,0.0,0.0,0.0,0.0,0.0,0.0,1676477934.460675,1
7,7.0,24028.41586213301,41423.54922575346,-40629.078820834024,-36701.02795374727,187500.0,8727.305677808008,-37604.61957509751,-14105.582428643995,-0.022,0.9460000000000001,0.088,192.0,0.0,0.0,0.0,0.0,0.0,0.0,0.0,0.0,0.0,1676477934.4607,1
8,8.0,23821.90809511043,41257.67693015062,-40772.889944659466,-36740.41172747752,187500.0,8689.777098867547,-38139.36270944628,-14789.635215954211,-0.006,0.926,0.116,192.0,255.0,208.0,28.0,240.0,3.0,160.0,0.0,0.0,0.0,1676477934.460725,1
9,9.0,23759.36791412448,41169.36518780771,-40729.72872611627,-36712.337936441654,187500.0,8721.896555649824,-38147.4540409391,-14864.714725579588,-0.006,0.926,0.116,192.0,0.0,0.0,0.0,0.0,0.0,0.0,0.0,0.0,0.0,1676477934.460749,1
10,10.0,23953.761035652285,41320.73120125904,-40570.80782303904,-36651.809412456685,187500.0,8772.567960330005,-37626.65839513045,-14209.67450257236,-0.006,0.926,0.116,192.0,0.0,0.0,0.0,0.0,0.0,0.0,0.0,0.0,0.0,1676477934.460774,1
11,11.0,24054.00860953434,41441.989414929085,-40583.54831737856,-36661.28655210573,187500.0,8780.703995311736,-37518.408896733396,-13953.925842514736,-0.006,0.926,0.116,192.0,0.0,0.0,0.0,0.0,0.0,0.0,0.0,0.0,0.0,1676477934.460799,1
12,12.0,23854.34047631508,41294.914936413166,-40737.39537446444,-36720.20575048992,187500.0,8717.001523614112,-38039.31630126433,-14607.446146899003,-0.006,0.926,0.116,192.0,0.0,0.0,0.0,0.0,0.0,0.0,0.0,0.0,0.0,1676477934.460823,1
13,13.0,23754.048198944118,41179.35641757923,-40719.58103413356,-36699.195110701934,187500.0,8736.380486056863,-38166.520078959475,-14843.949954980608,-0.006,0.926,0.116,192.0,0.0,0.0,0.0,0.0,0.0,0.0,0.0,0.0,0.0,1676477934.460848,1
14,14.0,23940.05941630118,41313.75745698899,-40548.321968117,-36627.691880189406,187500.0,8804.530954901094,-37675.49695676529,-14258.11073280701,-0.006,0.926,0.116,192.0,0.0,0.0,0.0,0.0,0.0,0.0,0.0,0.0,0.0,1676477934.460873,1
15,15.0,24097.594511222185,41470.95727574316,-40506.50185424112,-36611.50921720376,187500.0,8824.580469677505,-37432.10881139145,-13844.31288770591,-0.006,0.926,0.116,192.0,0.0,0.0,0.0,0.0,0.0,0.0,0.0,0.0,0.0,1676477934.460898,1
16,16.0,23953.671628674463,41377.459928686614,-40635.49377149269,-36654.44691830241,187500.0,8776.278349909586,-37879.478976664424,-14390.634225682525,-0.006,0.926,0.116,192.0,0.0,0.0,0.0,0.0,0.0,0.0,0.0,0.0,0.0,1676477934.520862,1
17,17.0,23797.03060353167,41228.44084840308,-40652.90578042338,-36647.98726415483,187500.0,8790.136431471878,-38112.54061609991,-14748.329192200805,0.014,0.9560000000000001,0.15,192.0,0.0,112.0,29.0,224.0,4.0,176.0,0.0,0.0,0.0,1676477934.520904,1
18,18.0,23929.84466908511,41319.568910547365,-40501.852691394415,-36585.20121397987,187500.0,8867.182894609321,-37700.84383497761,-14260.301203763629,0.014,0.9560000000000001,0.15,192.0,0.0,0.0,0.0,0.0,0.0,0.0,0.0,0.0,0.0,1676477934.520936,1
19,19.0,24128.886953459616,41508.463502939165,-40424.76152476806,-36562.06715846863,187500.0,8890.004025698188,-37367.78049084908,-13752.491921483508,0.014,0.9560000000000001,0.15,192.0,0.0,0.0,0.0,0.0,0.0,0.0,0.0,0.0,0.0,1676477934.520966,1
20,20.0,24024.012568475315,41454.66285403525,-40547.09262217196,-36619.13116206302,187500.0,8826.882699356402,-37742.887466298045,-14191.211961652276,0.014,0.9560000000000001,0.15,192.0,0.0,0.0,0.0,0.0,0.0,0.0,0.0,0.0,0.0,1676477934.520995,1
21,21.0,23852.641743736476,41297.57479400335,-40595.55120415106,-36620.65108068599,187500.0,8837.790350650592,-38072.66510399164,-14669.941624396042,0.014,0.9560000000000001,0.15,192.0,0.0,0.0,0.0,0.0,0.0,0.0,0.0,0.0,0.0,1676477934.521025,1
22,22.0,23942.54045993572,41342.07711721386,-40465.93343805474,-36555.831021765596,187500.0,8910.500575363705,-37744.98853027684,-14292.420660545906,0.014,0.9560000000000001,0.15,192.0,0.0,0.0,0.0,0.0,0.0,0.0,0.0,0.0,0.0,1676477934.521071,1
23,23.0,24154.390293883123,41534.547988718514,-40369.23979154108,-36518.771829458696,187500.0,8936.182729742854,-37328.731993285655,-13704.167449971135,0.014,0.9560000000000001,0.15,192.0,0.0,0.0,0.0,0.0,0.0,0.0,0.0,0.0,0.0,1676477934.521098,1
24,24.0,24107.406927038068,41531.66461368377,-40475.276467237054,-36564.79407129217,187500.0,8874.178990623832,-37595.790636037666,-13993.91311334528,0.014,0.9560000000000001,0.15,192.0,0.0,0.0,0.0,0.0,0.0,0.0,0.0,0.0,0.0,1676477934.521123,1
25,25.0,23915.986587522817,41359.355015677815,-40563.49880260215,-36577.57926912061,187500.0,8849.927347889823,-38007.15214099314,-14572.912701715553,0.014,0.9560000000000001,0.15,192.0,0.0,0.0,0.0,0.0,0.0,0.0,0.0,0.0,0.0,1676477934.521148,1
26,26.0,23954.31982926367,41362.774832579475,-40464.74879559861,-36516.89428292445,187500.0,8920.625915601959,-37777.555021948225,-14341.415684391939,0.014,0.9560000000000001,0.15,192.0,0.0,0.0,0.0,0.0,0.0,0.0,0.0,0.0,0.0,1676477934.521173,1
27,27.0,24177.792570327827,41560.92304717578,-40342.238884239065,-36465.440567188336,187500.0,8973.06310809411,-37295.807873702994,-13703.47454589302,-0.044,0.968,0.14,192.0,254.0,160.0,30.0,64.0,4.0,96.0,0.0,0.0,0.0,1676477934.521198,1
28,28.0,24185.861550076195,41607.392323898355,-40426.5943678134,-36506.85834966402,187500.0,8925.230374959752,-37433.114639891945,-13833.40523641172,-0.044,0.968,0.14,192.0,0.0,0.0,0.0,0.0,0.0,0.0,0.0,0.0,0.0,1676477934.521223,1
29,29.0,23978.30325106421,41433.182827613695,-40553.46286934172,-36536.29559711165,187500.0,8894.876705989445,-37903.21652927596,-14490.591226886658,-0.044,0.968,0.14,192.0,0.0,0.0,0.0,0.0,0.0,0.0,0.0,0.0,0.0,1676477934.521248,1
30,30.0,23973.98936438434,41395.922469606696,-40488.151072043314,-36478.31517199459,187500.0,8932.695857607825,-37789.11087383162,-14419.8032521967,-0.044,0.968,0.14,192.0,0.0,0.0,0.0,0.0,0.0,0.0,0.0,0.0,0.0,1676477934.521273,1
31,31.0,24189.84016058924,41572.03186417006,-40358.51095420253,-36422.97225272325,187500.0,8984.149573343942,-37281.79332992951,-13785.72896548855,-0.044,0.968,0.14,192.0,0.0,0.0,0.0,0.0,0.0,0.0,0.0,0.0,0.0,1676477934.581698,1
32,32.0,24259.75641724544,41673.50878399715,-40392.19503309668,-36440.38426165393,187500.0,8950.823122361078,-37277.27827754954,-13735.281078252921,-0.044,0.968,0.14,192.0,0.0,0.0,0.0,0.0,0.0,0.0,0.0,0.0,0.0,1676477934.581739,1
33,33.0,24058.769531103317,41518.45473271069,-40512.44741826623,-36483.50077670822,187500.0,8907.058406717588,-37767.42968170997,-14396.043347840709,-0.044,0.968,0.14,192.0,0.0,0.0,0.0,0.0,0.0,0.0,0.0,0.0,0.0,1676477934.581768,1
34,34.0,24007.584036300665,41446.325653353415,-40452.52239138155,-36435.77980229614,187500.0,8965.195294045841,-37764.479251441866,-14478.275415691784,-0.044,0.968,0.14,192.0,0.0,0.0,0.0,0.0,0.0,0.0,0.0,0.0,0.0,1676477934.581794,1
35,35.0,24210.98491084396,41604.79952154154,-40298.608279062304,-36374.84894691097,187500.0,9020.538213317182,-37243.3930329553,-13862.753076881538,-0.044,0.968,0.14,192.0,0.0,0.0,0.0,0.0,0.0,0.0,0.0,0.0,0.0,1676477934.581819,1
36,36.0,24334.187726281612,41741.86041854148,-40294.65202029372,-36383.34260980399,187500.0,9003.506184042239,-37102.13000799775,-13637.715713705507,-0.044,0.968,0.14,192.0,0.0,0.0,0.0,0.0,0.0,0.0,0.0,0.0,0.0,1676477934.581844,1
37,37.0,24151.68573280403,41608.12993146538,-40430.46121960416,-36434.25988367318,187500.0,8954.82408461858,-37588.86159525652,-14265.39740149944,-0.076,0.96,0.122,192.0,253.0,160.0,30.0,0.0,3.0,208.0,0.0,0.0,0.0,1676477934.581869,1
38,38.0,24030.583981345175,41478.758034558065,-40427.22021665814,-36414.880921230426,187500.0,8984.976587888788,-37730.66106208099,-14504.091680537664,-0.076,0.96,0.122,192.0,0.0,0.0,0.0,0.0,0.0,0.0,0.0,0.0,0.0,1676477934.581894,1
39,39.0,24198.06560254879,41594.56242258101,-40277.97761893006,-36355.49233621268,187500.0,9056.882149801511,-37247.081070790424,-13952.450627380686,-0.076,0.96,0.122,192.0,0.0,0.0,0.0,0.0,0.0,0.0,0.0,0.0,0.0,1676477934.581918,1
40,40.0,24363.35675279579,41755.87496231496,-40243.80180165789,-36355.15706004585,187500.0,9060.927815547922,-36981.430587939096,-13573.745021074417,-0.076,0.96,0.122,192.0,0.0,0.0,0.0,0.0,0.0,0.0,0.0,0.0,0.0,1676477934.581943,1
41,41.0,24208.481515464966,41660.70123442426,-40379.05220735696,-36408.77889499413,187500.0,9015.330256859095,-37426.051488644065,-14116.93711482729,-0.076,0.96,0.122,192.0,0.0,0.0,0.0,0.0,0.0,0.0,0.0,0.0,0.0,1676477934.581968,1
42,42.0,24053.025132778304,41508.30704072798,-40402.87916694632,-36398.67590650033,187500.0,9025.209727908341,-37680.54845101219,-14492.625235632091,-0.076,0.96,0.122,192.0,0.0,0.0,0.0,0.0,0.0,0.0,0.0,0.0,0.0,1676477934.581993,1
43,43.0,24195.673965892074,41598.20575692723,-40254.240066318525,-36329.96664404472,187500.0,9088.912199605966,-37257.9440185957,-14030.68173297426,-0.076,0.96,0.122,192.0,0.0,0.0,0.0,0.0,0.0,0.0,0.0,0.0,0.0,1676477934.582034,1
44,44.0,24394.91741596668,41781.84768937203,-40175.49487060247,-36311.45939963572,187500.0,9107.888830648522,-36877.91965936657,-13524.124148383637,-0.076,0.96,0.122,192.0,0.0,0.0,0.0,0.0,0.0,0.0,0.0,0.0,0.0,1676477934.582059,1
45,45.0,24285.527978602408,41718.32403163004,-40308.66656406719,-36381.21919408074,187500.0,9041.0347629827,-37247.37164346834,-13953.098827969889,-0.076,0.96,0.122,192.0,0.0,0.0,0.0,0.0,0.0,0.0,0.0,0.0,0.0,1676477934.582084,1
46,46.0,24090.35254601867,41542.393451022326,-40373.39721600976,-36387.32122031703,187500.0,9040.140693204487,-37624.40086894046,-14464.506741107314,-0.076,0.96,0.122,192.0,0.0,0.0,0.0,0.0,0.0,0.0,0.0,0.0,0.0,1676477934.640471,1
47,47.0,24167.667230089573,41576.211640383204,-40253.5024587515,-36336.091022025474,187500.0,9079.636225657014,-37312.2587576221,-14128.783539388603,-0.042,0.99,0.122,192.0,254.0,176.0,30.0,240.0,3.0,208.0,0.0,0.0,0.0,1676477934.640513,1
48,48.0,24373.81736920087,41752.186924479836,-40164.69897803056,-36319.863655550915,187500.0,9090.700339162391,-36869.58245868474,-13544.061904437769,-0.042,0.99,0.122,192.0,0.0,0.0,0.0,0.0,0.0,0.0,0.0,0.0,0.0,1676477934.640545,1
49,49.0,24302.49295264399,41725.56599683357,-40295.479034838565,-36392.59623200849,187500.0,9017.16309990443,-37153.74018594506,-13846.54806215144,-0.042,0.99,0.122,192.0,0.0,0.0,0.0,0.0,0.0,0.0,0.0,0.0,0.0,1676477934.640575,1
50,50.0,24066.70440038495,41521.56162518998,-40407.885957704304,-36437.41147964138,187500.0,8984.73071869978,-37640.27060750373,-14478.81185755871,-0.042,0.99,0.122,192.0,0.0,0.0,0.0,0.0,0.0,0.0,0.0,0.0,0.0,1676477934.640605,1
51,51.0,24069.721885886418,41479.674456080735,-40340.60720689383,-36419.775953266144,187500.0,9018.794777249668,-37461.72487279474,-14307.150460141953,-0.042,0.99,0.122,192.0,0.0,0.0,0.0,0.0,0.0,0.0,0.0,0.0,0.0,1676477934.640634,1
52,52.0,24264.942021959072,41633.119181766415,-40246.41695575917,-36411.08112467302,187500.0,9026.863756998035,-36983.55400366235,-13691.426955631609,-0.042,0.99,0.122,192.0,0.0,0.0,0.0,0.0,0.0,0.0,0.0,0.0,0.0,1676477934.640663,1
53,53.0,24236.08591986727,41645.43499296129,-40359.62854142529,-36488.12758781047,187500.0,8932.405284929906,-37148.19695332014,-13832.39940791123,-0.042,0.99,0.122,192.0,0.0,0.0,0.0,0.0,0.0,0.0,0.0,0.0,0.0,1676477934.640692,1
54,54.0,23974.54815799572,41426.03026938799,-40531.96049117571,-36570.11378647254,187500.0,8855.738801448202,-37715.30541364019,-14552.662021239046,-0.042,0.99,0.122,192.0,0.0,0.0,0.0,0.0,0.0,0.0,0.0,0.0,0.0,1676477934.640721,1
55,55.0,23902.86611352755,41327.16850366217,-40515.86723516789,-36572.527774873706,187500.0,8860.65618522837,-37674.222907331336,-14548.146968859073,-0.042,0.99,0.122,192.0,0.0,0.0,0.0,0.0,0.0,0.0,0.0,0.0,0.0,1676477934.640751,1
56,56.0,24084.854016882662,41461.45778434966,-40417.07252467544,-36558.334417144586,187500.0,8867.652281242881,-37172.269782098505,-13922.029903177012,-0.042,0.99,0.122,192.0,0.0,0.0,0.0,0.0,0.0,0.0,0.0,0.0,0.0,1676477934.64078,1
57,57.0,24124.90834294657,41520.33227924493,-40508.491159497644,-36621.612205697566,187500.0,8797.244286208665,-37209.59719533887,-13876.901731121747,-0.06,0.962,0.108,192.0,254.0,32.0,30.0,16.0,3.0,96.0,0.0,0.0,0.0,1676477934.640809,1
58,58.0,23857.804996705654,41304.481483040036,-40719.87160681148,-36723.29029122475,187500.0,8696.795546626514,-37820.760943980335,-14621.41598718357,-0.06,0.962,0.108,192.0,0.0,0.0,0.0,0.0,0.0,0.0,0.0,0.0,0.0,1676477934.640838,1
59,59.0,23727.36021606448,41155.350644034224,-40745.419650723896,-36741.12698330009,187500.0,8685.418508698764,-37918.57217771676,-14791.311596788359,-0.06,0.962,0.108,192.0,0.0,0.0,0.0,0.0,0.0,0.0,0.0,0.0,0.0,1676477934.640868,1
60,60.0,23879.575595805123,41256.04525280539,-40645.3955942864,-36727.4700674379,187500.0,8706.29503802002,-37425.917378177335,-14201.158487934887,-0.06,0.962,0.108,192.0,0.0,0.0,0.0,0.0,0.0,0.0,0.0,0.0,0.0,1676477934.640894,1
61,61.0,23966.523881736266,41362.88659130175,-40682.834766249034,-36768.66433246903,187500.0,8650.90741525977,-37300.077056893955,-13968.633290366328,-0.06,0.962,0.108,192.0,0.0,0.0,0.0,0.0,0.0,0.0,0.0,0.0,0.0,1676477934.700247,1
62,62.0,23739.363102836982,41188.87826071719,-40880.401835489494,-36859.367711468665,187500.0,8549.385791943765,-37891.995953559395,-14669.38283078466,-0.06,0.962,0.108,192.0,0.0,0.0,0.0,0.0,0.0,0.0,0.0,0.0,0.0,1676477934.700288,1
63,63.0,23568.41696124279,41007.583261440195,-40917.0586963962,-36877.67379017756,187500.0,8546.055382019924,-38112.16063644417,-14985.816477038441,-0.06,0.962,0.108,192.0,0.0,0.0,0.0,0.0,0.0,0.0,0.0,0.0,0.0,1676477934.700317,1
64,64.0,23704.762602420164,41096.27498343885,-40775.21452608282,-36837.82062981375,187500.0,8575.336167256375,-37616.73422059229,-14435.315362848683,-0.06,0.962,0.108,192.0,0.0,0.0,0.0,0.0,0.0,0.0,0.0,0.0,0.0,1676477934.700359,1
65,65.0,23848.327857056604,41238.700299108066,-40751.566380449105,-36857.15488876759,187500.0,8541.965012784602,-37323.144057171834,-14024.669113715783,-0.06,0.962,0.108,192.0,0.0,0.0,0.0,0.0,0.0,0.0,0.0,0.0,0.0,1676477934.700384,1
66,66.0,23683.819017865542,41121.80067560681,-40927.13933314554,-36942.31503514231,187500.0,8446.970098849548,-37842.93387448,-14626.914516319575,-0.06,0.962,0.108,192.0,0.0,0.0,0.0,0.0,0.0,0.0,0.0,0.0,0.0,1676477934.700409,1
67,67.0,23497.36076561937,40942.427926352975,-40983.15280475054,-36957.246000438456,187500.0,8436.978869078024,-38190.570555993385,-15095.89881848083,-0.06,0.974,0.11,192.0,254.0,32.0,30.0,112.0,3.0,112.0,0.0,0.0,0.0,1676477934.700466,1
68,68.0,23621.569409557513,41011.87479637561,-40829.238692431296,-36900.405514288606,187500.0,8502.87181173227,-37747.02253902228,-14628.076807031252,-0.06,0.974,0.11,192.0,0.0,0.0,0.0,0.0,0.0,0.0,0.0,0.0,0.0,1676477934.700491,1
69,69.0,23825.5737812011,41202.93750797958,-40740.166990776896,-36883.08291233575,187500.0,8529.939774267646,-37306.089676152435,-14067.048021203045,-0.06,0.974,0.11,192.0,0.0,0.0,0.0,0.0,0.0,0.0,0.0,0.0,0.0,1676477934.700516,1
70,70.0,23733.30578008959,41157.13878359065,-40874.50097495329,-36942.560904331316,187500.0,8482.10704113329,-37699.256861121285,-14506.930352083487,-0.06,0.974,0.11,192.0,0.0,0.0,0.0,0.0,0.0,0.0,0.0,0.0,0.0,1676477934.70054,1
71,71.0,23539.382045195347,40980.98468553837,-40943.14318217554,-36946.45010786654,187500.0,8457.00603210998,-38144.503610671,-15077.391574071835,-0.06,0.974,0.11,192.0,0.0,0.0,0.0,0.0,0.0,0.0,0.0,0.0,0.0,1676477934.700565,1
72,72.0,23635.606305075446,41044.66480549155,-40779.394302295965,-36860.753519624894,187500.0,8532.264355690999,-37768.457861954914,-14702.932799212074,-0.06,0.974,0.11,192.0,0.0,0.0,0.0,0.0,0.0,0.0,0.0,0.0,0.0,1676477934.70059,1
73,73.0,23861.33657232959,41247.30572072336,-40649.351853054985,-36820.02864122733,187500.0,8588.568399973918,-37216.01214599754,-14020.712854947193,-0.06,0.974,0.11,192.0,0.0,0.0,0.0,0.0,0.0,0.0,0.0,0.0,0.0,1676477934.700615,1
74,74.0,23841.532926742188,41266.05883432136,-40749.957054848324,-36867.66020866158,187500.0,8539.729838339072,-37474.51007062317,-14280.954215640333,-0.06,0.974,0.11,192.0,0.0,0.0,0.0,0.0,0.0,0.0,0.0,0.0,0.0,1676477934.70064,1
75,75.0,23633.795813774566,41099.225413706954,-40844.951968783374,-36878.97019135597,187500.0,8519.054474717912,-37997.67500134409,-14940.040104393973,-0.06,0.974,0.11,192.0,0.0,0.0,0.0,0.0,0.0,0.0,0.0,0.0,0.0,1676477934.700665,1
76,76.0,23668.97745954722,41106.065047510274,-40722.95614754631,-36809.27745214432,187500.0,8597.240876822576,-37765.261562497806,-14735.655753094645,-0.06,0.974,0.11,192.0,0.0,0.0,0.0,0.0,0.0,0.0,0.0,0.0,0.0,1676477934.760546,1
77,77.0,23905.280101928725,41304.70500048459,-40568.88557301588,-36755.52150672931,187500.0,8665.81602881146,-37163.23967733856,-14005.24544778412,-0.024,0.928,0.096,192.0,255.0,64.0,29.0,0.0,3.0,0.0,0.0,0.0,0.0,1676477934.760588,1
78,78.0,23934.002093553794,41370.70970186111,-40633.70563193627,-36796.46990257143,187500.0,8628.242746382088,-37284.699056708705,-14075.161704440321,-0.024,0.928,0.096,192.0,0.0,0.0,0.0,0.0,0.0,0.0,0.0,0.0,0.0,1676477934.760619,1
79,79.0,23716.005529881186,41194.84617648675,-40758.562476463616,-36836.434821657516,187500.0,8591.295312797465,-37894.7452181274,-14812.03166389843,-0.024,0.928,0.096,192.0,0.0,0.0,0.0,0.0,0.0,0.0,0.0,0.0,0.0,1676477934.760649,1
80,80.0,23678.298136985082,41133.267120512384,-40674.609324289486,-36794.704114759465,187500.0,8657.635290340817,-37830.39454584057,-14780.672166427634,-0.024,0.928,0.096,192.0,0.0,0.0,0.0,0.0,0.0,0.0,0.0,0.0,0.0,1676477934.760679,1
81,81.0,23888.650404053977,41303.632116750734,-40508.558214731005,-36740.165858288514,187500.0,8716.889764891836,-37225.5339891355,-14041.455273801717,-0.024,0.928,0.096,192.0,0.0,0.0,0.0,0.0,0.0,0.0,0.0,0.0,0.0,1676477934.760709,1
82,82.0,23955.057436830695,41395.34132425086,-40548.85840998393,-36782.58946926468,187500.0,8668.14061023481,-37209.55249184996,-13908.596504759373,-0.024,0.928,0.096,192.0,0.0,0.0,0.0,0.0,0.0,0.0,0.0,0.0,0.0,1676477934.760738,1
83,83.0,23733.618704511966,41226.4291914021,-40703.66659208138,-36843.52032464985,187500.0,8595.27392331051,-37857.6860258205,-14669.315775551293,-0.024,0.928,0.096,192.0,0.0,0.0,0.0,0.0,0.0,0.0,0.0,0.0,0.0,1676477934.760768,1
84,84.0,23641.26129642264,41115.095152270216,-40691.1049116975,-36817.212321425955,187500.0,8626.32049635893,-37968.32716087427,-14833.51169031998,-0.024,0.928,0.096,192.0,0.0,0.0,0.0,0.0,0.0,0.0,0.0,0.0,0.0,1676477934.760797,1
85,85.0,23824.366787000512,41242.85772357675,-40548.99252045066,-36770.40776853654,187500.0,8677.57304639495,-37413.06512511553,-14134.773806902625,-0.024,0.928,0.096,192.0,0.0,0.0,0.0,0.0,0.0,0.0,0.0,0.0,0.0,1676477934.760826,1
86,86.0,23930.738738863318,41366.060539014405,-40577.3792359089,-36804.11419917514,187500.0,8632.17665340622,-37267.44350998921,-13813.311018146398,0.04,0.982,0.078,192.0,1.0,64.0,30.0,176.0,2.0,112.0,0.0,0.0,0.0,1676477934.760871,1
87,87.0,23724.9015241744,41210.8276737723,-40774.09693886006,-36892.224775817966,187500.0,8526.274088176977,-37919.44389575051,-14559.50165504237,0.04,0.982,0.078,192.0,0.0,0.0,0.0,0.0,0.0,0.0,0.0,0.0,0.0,1676477934.760899,1
88,88.0,23581.20215907123,41064.468451078945,-40781.003627896745,-36868.3531127397,187500.0,8559.108800781823,-38154.4054334647,-14898.018824817995,0.04,0.982,0.078,192.0,0.0,0.0,0.0,0.0,0.0,0.0,0.0,0.0,0.0,1676477934.760925,1
89,89.0,23726.73436721973,41161.363263292704,-40629.25763478966,-36810.12681843362,187500.0,8626.074627169923,-37626.054898030154,-14262.178750297875,0.04,0.982,0.078,192.0,0.0,0.0,0.0,0.0,0.0,0.0,0.0,0.0,0.0,1676477934.76095,1
90,90.0,23879.73205801631,41314.338602344826,-40610.01278281365,-36825.86244653016,187500.0,8611.65775199625,-37326.563874073494,-13753.229529050534,0.04,0.982,0.078,192.0,0.0,0.0,0.0,0.0,0.0,0.0,0.0,0.0,0.0,1676477934.760975,1
91,91.0,23717.63720722642,41211.05119121685,-40781.40595929694,-36907.02163064738,187500.0,8524.284782920455,-37867.72195908093,-14374.362155719062,0.04,0.982,0.078,192.0,0.0,0.0,0.0,0.0,0.0,0.0,0.0,0.0,0.0,1676477934.822338,1
92,92.0,23530.754271835598,41032.661918719044,-40835.3407186676,-36916.45406680752,187500.0,8515.92523049417,-38245.82406828691,-14903.718519654098,0.04,0.982,0.078,192.0,0.0,0.0,0.0,0.0,0.0,0.0,0.0,0.0,0.0,1676477934.82238,1
93,93.0,23652.079540739007,41100.633573607636,-40683.43826334933,-36845.15200199509,187500.0,8605.287504826487,-37797.112798346614,-14394.054042584186,0.04,0.982,0.078,192.0,0.0,0.0,0.0,0.0,0.0,0.0,0.0,0.0,0.0,1676477934.822411,1
94,94.0,23852.887612925486,41284.0966920968,-40607.88936709039,-36840.86046705967,187500.0,8626.454606825662,-37351.173144718785,-13737.516252698453,0.04,0.982,0.078,192.0,0.0,0.0,0.0,0.0,0.0,0.0,0.0,0.0,0.0,1676477934.822441,1
95,95.0,23752.930611721353,41244.19882824407,-40760.32826427559,-36913.056601650314,187500.0,8520.619096829783,-37794.49764424535,-14203.684235058337,0.04,0.982,0.078,192.0,0.0,0.0,0.0,0.0,0.0,0.0,0.0,0.0,0.0,1676477934.822471,1
96,96.0,23551.720208134677,41065.116651668155,-40846.628349617524,-36923.09253491074,187500.0,8515.657009560706,-38291.55573744247,-14871.062621004894,0.082,0.962,0.066,192.0,2.0,144.0,30.0,16.0,2.0,16.0,0.0,0.0,0.0,1676477934.822501,1
97,97.0,23619.82597349,41089.994143246906,-40716.29532769863,-36861.468775447465,187500.0,8580.342958014364,-37947.47298329747,-14503.91286658202,0.082,0.962,0.066,192.0,0.0,0.0,0.0,0.0,0.0,0.0,0.0,0.0,0.0,1676477934.82253,1
98,98.0,23852.887612925486,41297.30657306988,-40598.41222744134,-36818.821647026736,187500.0,8629.203871393665,-37404.81733141153,-13727.212098504557,0.082,0.962,0.066,192.0,0.0,0.0,0.0,0.0,0.0,0.0,0.0,0.0,0.0,1676477934.82256,1
99,99.0,23824.120917811506,41316.73023900155,-40713.59076661954,-36867.34728423921,187500.0,8575.135001556278,-37705.29183212422,-13976.009366036578,0.082,0.962,0.066,192.0,0.0,0.0,0.0,0.0,0.0,0.0,0.0,0.0,0.0,1676477934.822589,1
100,100.0,23614.685072265278,41139.078574070765,-40821.70615454986,-36878.456101233496,187500.0,8565.16612352921,-38286.66070540675,-14741.288392697383,0.082,0.962,0.066,192.0,0.0,0.0,0.0,0.0,0.0,0.0,0.0,0.0,0.0,1676477934.822616,1
101,101.0,23649.129110470905,41138.51978045938,-40705.32062117107,-36797.14045490509,187500.0,8655.020136239546,-38070.09465337928,-14530.690256439479,0.082,0.962,0.066,192.0,0.0,0.0,0.0,0.0,0.0,0.0,0.0,0.0,0.0,1676477934.822646,1
102,102.0,23895.199465179383,41339.23844566804,-40553.373462363896,-36728.3194337272,187500.0,8724.556413240005,-37461.702521050276,-13696.769022556427,0.082,0.962,0.066,192.0,0.0,0.0,0.0,0.0,0.0,0.0,0.0,0.0,0.0,1676477934.822675,1
103,103.0,23942.78632912473,41412.216891314616,-40632.87861739143,-36749.75475665984,187500.0,8682.713947619672,-37587.63224931148,-13715.298618709878,0.082,0.962,0.066,192.0,0.0,0.0,0.0,0.0,0.0,0.0,0.0,0.0,0.0,1676477934.822704,1
104,104.0,23728.388396309423,41244.981139300005,-40767.59258122356,-36771.99474239287,187500.0,8640.916185488246,-38210.32949809188,-14542.201404833962,0.082,0.962,0.066,192.0,0.0,0.0,0.0,0.0,0.0,0.0,0.0,0.0,0.0,1676477934.822733,1
105,105.0,23698.235893039215,41190.733455506976,-40679.63846679193,-36705.140674727045,187500.0,8712.9558578677,-38122.3977354047,-14532.187823317985,0.082,0.962,0.066,192.0,0.0,0.0,0.0,0.0,0.0,0.0,0.0,0.0,0.0,1676477934.822762,1
106,106.0,23938.338331978124,41376.85643158632,-40500.39982800482,-36626.1943133109,187500.0,8792.013978006122,-37472.43135838883,-13706.670845350129,0.028,1.026,0.076,192.0,0.0,224.0,32.0,16.0,2.0,96.0,0.0,0.0,0.0,1676477934.881198,1
107,107.0,24048.24185946487,41504.70840987068,-40529.12181962989,-36634.79973492619,187500.0,8759.380431101374,-37415.12148560542,-13510.869563921638,0.028,1.026,0.076,192.0,0.0,0.0,0.0,0.0,0.0,0.0,0.0,0.0,0.0,1676477934.881255,1
108,108.0,23846.942048900375,41351.93423651865,-40689.65204830791,-36672.708293522395,187500.0,8701.824689128958,-38056.79536542838,-14356.79368457719,0.028,1.026,0.076,192.0,0.0,0.0,0.0,0.0,0.0,0.0,0.0,0.0,0.0,1676477934.881283,1
109,109.0,23774.298879420625,41262.86253486425,-40644.50152450818,-36611.8444933706,187500.0,8775.339576642464,-38110.97599398804,-14547.208195591951,0.028,1.026,0.076,192.0,0.0,0.0,0.0,0.0,0.0,0.0,0.0,0.0,0.0,1676477934.881309,1
110,110.0,24005.90765546652,41431.41703980172,-40459.02674901805,-36530.21592261981,187500.0,8853.101295602477,-37458.17094542634,-13784.410212565686,0.028,1.026,0.076,192.0,0.0,0.0,0.0,0.0,0.0,0.0,0.0,0.0,0.0,1676477934.881334,1
111,111.0,24180.765352340386,41604.732466308174,-40444.654577333284,-36531.95935868732,187500.0,8863.427801540829,-37226.115134491345,-13389.074908384671,0.028,1.026,0.076,192.0,0.0,0.0,0.0,0.0,0.0,0.0,0.0,0.0,0.0,1676477934.881359,1
112,112.0,24006.75702175582,41490.35858993037,-40606.83883510099,-36581.46847265583,187500.0,8812.108196271443,-37830.23808362938,-14141.211109305754,0.028,1.026,0.076,192.0,0.0,0.0,0.0,0.0,0.0,0.0,0.0,0.0,0.0,1676477934.881384,1
113,113.0,23883.755372018262,41360.7631755785,-40594.612430883935,-36543.17993440389,187500.0,8838.662068684349,-38042.42319374361,-14521.660151679534,0.028,1.026,0.076,192.0,0.0,0.0,0.0,0.0,0.0,0.0,0.0,0.0,0.0,1676477934.881409,1
114,114.0,24069.52072018632,41494.78423533252,-40389.5351755065,-36455.717558350276,187500.0,8941.323630967574,-37438.1884858833,-13855.555815166928,0.028,1.026,0.076,192.0,0.0,0.0,0.0,0.0,0.0,0.0,0.0,0.0,0.0,1676477934.881434,1
115,115.0,24267.51247257143,41694.3406098295,-40310.38764839026,-36443.22293319976,187500.0,8966.20112254633,-37039.94745492309,-13282.546494310678,0.028,1.026,0.076,192.0,0.0,0.0,0.0,0.0,0.0,0.0,0.0,0.0,0.0,1676477934.881458,1
116,116.0,24142.029779199336,41631.15222825435,-40461.373682185855,-36494.18491055786,187500.0,8907.103110206499,-37587.118159189005,-13934.770397516537,0.014,0.986,0.082,192.0,0.0,112.0,30.0,208.0,2.0,144.0,0.0,0.0,0.0,1676477934.881483,1
117,117.0,23956.666762431476,41466.06224370745,-40500.84686289392,-36474.18009927036,187500.0,8946.48688393675,-37978.98894297945,-14506.036282305275,0.014,0.986,0.082,192.0,0.0,0.0,0.0,0.0,0.0,0.0,0.0,0.0,0.0,1676477934.881508,1
118,118.0,24083.803484893262,41547.333186546944,-40320.62474735078,-36394.25026109818,187500.0,9045.102780473564,-37477.54990786909,-13974.489447413618,0.014,0.986,0.082,192.0,0.0,0.0,0.0,0.0,0.0,0.0,0.0,0.0,0.0,1676477934.881533,1
119,119.0,24316.82042083984,41758.803040838604,-40215.079810032825,-36358.28630426959,187500.0,9063.162989993452,-36967.19252672107,-13265.29094759118,0.014,0.986,0.082,192.0,0.0,0.0,0.0,0.0,0.0,0.0,0.0,0.0,0.0,1676477934.881558,1
120,120.0,24233.671931466095,41737.21125569478,-40357.50512570204,-36410.119999661445,187500.0,8988.39640479045,-37409.488846002685,-13745.585232446818,0.014,0.986,0.082,192.0,0.0,0.0,0.0,0.0,0.0,0.0,0.0,0.0,0.0,1676477934.881584,1
121,121.0,24018.268170150302,41553.6587302278,-40440.407745886776,-36414.43388634132,187500.0,8981.847343665046,-37930.48565751143,-14466.853674275122,0.014,0.986,0.082,192.0,0.0,0.0,0.0,0.0,0.0,0.0,0.0,0.0,0.0,1676477934.941464,1
122,122.0,24089.369069262633,41574.93759094925,-40292.72977027056,-36346.57399017501,187500.0,9071.991929053298,-37549.72369071528,-14098.765146585125,0.014,0.986,0.082,192.0,0.0,0.0,0.0,0.0,0.0,0.0,0.0,0.0,0.0,1676477934.941508,1
123,123.0,24332.91367684766,41778.13729979245,-40160.51920181742,-36311.10177172444,187500.0,9133.727447238856,-36929.84276173625,-13304.227686432325,0.014,0.986,0.082,192.0,0.0,0.0,0.0,0.0,0.0,0.0,0.0,0.0,0.0,1676477934.94154,1
124,124.0,24307.969130035537,41799.12558783598,-40298.8094447624,-36372.6361242099,187500.0,9042.800550794667,-37229.043213014986,-13594.867419584683,0.014,0.986,0.082,192.0,0.0,0.0,0.0,0.0,0.0,0.0,0.0,0.0,0.0,1676477934.94157,1
125,125.0,24058.635420636587,41590.02501845658,-40454.8469728049,-36414.322127619045,187500.0,8980.282721553174,-37873.42165391704,-14454.426104357972,0.014,0.986,0.082,192.0,0.0,0.0,0.0,0.0,0.0,0.0,0.0,0.0,0.0,1676477934.9416,1
126,126.0,24060.244746237368,41550.1048028594,-40355.89580010126,-36360.566182204035,187500.0,9053.417629410938,-37636.73903187979,-14274.762782426213,-0.048,0.974,0.084,192.0,254.0,128.0,30.0,112.0,2.0,160.0,0.0,0.0,0.0,1676477934.94163,1
127,127.0,24294.178103706614,41733.992604493214,-40202.38401918221,-36316.46619039371,187500.0,9093.784879897223,-36945.578389832786,-13449.156397480536,-0.048,0.974,0.084,192.0,0.0,0.0,0.0,0.0,0.0,0.0,0.0,0.0,0.0,1676477934.941659,1
128,128.0,24326.230505255524,41801.60663147052,-40294.51790982699,-36370.51270848665,187500.0,9034.686867557391,-37065.51785057996,-13517.172755858035,-0.048,0.974,0.084,192.0,0.0,0.0,0.0,0.0,0.0,0.0,0.0,0.0,0.0,1676477934.941707,1
129,129.0,24085.301051771767,41612.30970767853,-40455.048138505,-36415.17149390835,187500.0,8974.87359939499,-37764.74747237533,-14420.607914997092,-0.048,0.974,0.084,192.0,0.0,0.0,0.0,0.0,0.0,0.0,0.0,0.0,0.0,1676477934.941734,1
130,130.0,24021.553876585233,41519.68407865573,-40382.36026553634,-36377.03941786759,187500.0,9023.935678474389,-37695.81469247516,-14451.498025834326,-0.048,0.974,0.084,192.0,0.0,0.0,0.0,0.0,0.0,0.0,0.0,0.0,0.0,1676477934.94176,1
131,131.0,24237.13645185667,41679.36494104445,-40213.828112343326,-36341.00840580564,187500.0,9093.60606594158,-36987.934945575595,-13661.18504538358,-0.048,0.974,0.084,192.0,0.0,0.0,0.0,0.0,0.0,0.0,0.0,0.0,0.0,1676477934.941785,1
132,132.0,24336.57936293833,41798.63384945796,-40256.743461697515,-36375.98888587819,187500.0,9038.844292026079,-36920.477380809476,-13507.583857486708,-0.048,0.974,0.084,192.0,0.0,0.0,0.0,0.0,0.0,0.0,0.0,0.0,0.0,1676477934.941811,1
133,133.0,24101.01432812385,41614.947213524254,-40448.856705290884,-36449.63788385843,187500.0,8935.266308220185,-37668.03147411722,-14412.673045715457,-0.048,0.974,0.084,192.0,0.0,0.0,0.0,0.0,0.0,0.0,0.0,0.0,0.0,1676477934.941835,1
134,134.0,23988.85327444712,41481.32848517042,-40419.39710609879,-36429.007223726185,187500.0,8969.82210514809,-37798.945641391954,-14655.90472887811,-0.048,0.974,0.084,192.0,0.0,0.0,0.0,0.0,0.0,0.0,0.0,0.0,0.0,1676477934.94186,1
135,135.0,24176.674983105062,41615.371896668905,-40238.705603922084,-36385.10839761596,187500.0,9029.747132032768,-37127.07455480988,-13907.054234391957,-0.048,0.974,0.084,192.0,0.0,0.0,0.0,0.0,0.0,0.0,0.0,0.0,0.0,1676477934.941885,1
136,136.0,24300.503647387464,41759.384186194446,-40243.15360106869,-36423.486342845725,187500.0,9009.474099811805,-36900.42786603307,-13538.205747390479,-0.04,0.978,0.09,192.0,254.0,192.0,30.0,144.0,2.0,208.0,0.0,0.0,0.0,1676477935.001303,1
137,137.0,24081.009516836348,41611.54974836704,-40443.84991453289,-36511.73102995528,187500.0,8899.436461858328,-37608.128798977,-14359.230024722818,-0.04,0.978,0.09,192.0,0.0,0.0,0.0,0.0,0.0,0.0,0.0,0.0,0.0,1676477935.001345,1
138,138.0,23899.35688964807,41432.44522004667,-40472.81777534697,-36507.305384553125,187500.0,8899.861145002978,-37923.62367196366,-14795.759593934965,-0.04,0.978,0.09,192.0,0.0,0.0,0.0,0.0,0.0,0.0,0.0,0.0,0.0,1676477935.001377,1
139,139.0,24052.66750486702,41523.439171724225,-40306.92312799968,-36453.28121820465,187500.0,8976.035890106665,-37310.850597721415,-14131.488100467695,-0.04,0.978,0.09,192.0,0.0,0.0,0.0,0.0,0.0,0.0,0.0,0.0,0.0,1676477935.001408,1
140,140.0,24233.89544891065,41695.7934732191,-40279.83281371985,-36469.97797131276,187500.0,8958.735639898257,-36904.674697479575,-13561.429209879543,-0.04,0.978,0.09,192.0,0.0,0.0,0.0,0.0,0.0,0.0,0.0,0.0,0.0,1676477935.001437,1
141,141.0,24062.077589282704,41585.08528293196,-40499.77397916007,-36566.40339689296,187500.0,8850.687307201304,-37534.74802193022,-14257.037849073155,-0.04,0.978,0.09,192.0,0.0,0.0,0.0,0.0,0.0,0.0,0.0,0.0,0.0,1676477935.001467,1
142,142.0,23838.269572051715,41371.46966117259,-40595.9311838068,-36585.00004827977,187500.0,8829.900184857868,-38014.70703061903,-14875.220045473581,-0.04,0.978,0.09,192.0,0.0,0.0,0.0,0.0,0.0,0.0,0.0,0.0,0.0,1676477935.001496,1
143,143.0,23932.97391330885,41411.25576630304,-40458.66912110676,-36534.3733470885,187500.0,8885.623083784949,-37506.651879149904,-14350.512844385248,-0.04,0.978,0.09,192.0,0.0,0.0,0.0,0.0,0.0,0.0,0.0,0.0,0.0,1676477935.001526,1
144,144.0,24144.332008878235,41599.43510287227,-40390.02691388451,-36534.3733470885,187500.0,8899.861145002978,-36946.047776466345,-13640.59908874024,-0.04,0.978,0.09,192.0,0.0,0.0,0.0,0.0,0.0,0.0,0.0,0.0,0.0,1676477935.001555,1
145,145.0,24028.48291736638,41543.80161092301,-40585.09058774598,-36631.044641857705,187500.0,8771.249207407142,-37441.34008185149,-14165.239234595208,-0.04,0.978,0.09,192.0,0.0,0.0,0.0,0.0,0.0,0.0,0.0,0.0,0.0,1676477935.001584,1
146,146.0,23778.14337946694,41315.34443084532,-40710.61798460698,-36663.477023062354,187500.0,8729.607907486905,-38082.09754015178,-14950.120741143315,-0.096,0.9420000000000001,0.09,192.0,253.0,0.0,29.0,112.0,2.0,208.0,0.0,0.0,0.0,1676477935.001613,1
147,147.0,23828.43480449138,41304.950869673594,-40577.89332603137,-36618.57236845164,187500.0,8799.41240542083,-37703.21311988987,-14595.197390937496,-0.096,0.9420000000000001,0.09,192.0,0.0,0.0,0.0,0.0,0.0,0.0,0.0,0.0,0.0,1676477935.001641,1
148,148.0,24045.38083617459,41484.54713637199,-40462.58067638644,-36613.140894549004,187500.0,8828.335562745997,-37030.492667018494,-13808.415986110687,-0.096,0.9420000000000001,0.09,192.0,0.0,0.0,0.0,0.0,0.0,0.0,0.0,0.0,0.0,1676477935.00167,1
149,149.0,23994.12828613857,41482.043740992995,-40607.10705603445,-36692.53429085425,187500.0,8720.57780272696,-37338.36559514589,-14105.98476004419,-0.096,0.9420000000000001,0.09,192.0,0.0,0.0,0.0,0.0,0.0,0.0,0.0,0.0,0.0,1676477935.001699,1
150,150.0,23730.735329477233,41261.1861540301,-40747.54306644715,-36732.767430873806,187500.0,8652.159112949266,-38063.32207480932,-14972.696003043176,-0.096,0.9420000000000001,0.09,192.0,0.0,0.0,0.0,0.0,0.0,0.0,0.0,0.0,0.0,1676477935.001745,1
151,151.0,23719.850029927497,41204.368019624715,-40628.27415803363,-36686.49931985132,187500.0,8723.841157417435,-37852.701586806965,-14804.946160906096,-0.096,0.9420000000000001,0.09,192.0,0.0,0.0,0.0,0.0,0.0,0.0,0.0,0.0,0.0,1676477935.060552,1
152,152.0,23966.389771269533,41392.12267304929,-40449.23668494662,-36643.47221177485,187500.0,8787.70009132625,-37110.5119121685,-13953.121179714344,-0.096,0.9420000000000001,0.09,192.0,0.0,0.0,0.0,0.0,0.0,0.0,0.0,0.0,0.0,1676477935.060594,1
153,153.0,23998.598635029633,41459.37907211531,-40536.810819722516,-36707.532311383766,187500.0,8698.606037927395,-37228.484419403605,-14010.095776330922,-0.096,0.9420000000000001,0.09,192.0,0.0,0.0,0.0,0.0,0.0,0.0,0.0,0.0,0.0,1676477935.060625,1
154,154.0,23731.89762018891,41244.31058696635,-40715.7588858317,-36774.565193005226,187500.0,8625.828757980915,-38034.19775178406,-14947.438531808679,-0.096,0.9420000000000001,0.09,192.0,0.0,0.0,0.0,0.0,0.0,0.0,0.0,0.0,0.0,1676477935.060656,1
155,155.0,23669.670363625333,41153.897780644635,-40636.96898662674,-36733.683852396476,187500.0,8689.754747123092,-37998.90434728913,-14975.132343188805,-0.048,0.984,0.108,192.0,254.0,128.0,30.0,192.0,3.0,96.0,0.0,0.0,0.0,1676477935.060686,1
156,156.0,23909.996320008795,41337.047974711415,-40447.53795236802,-36679.19029941443,187500.0,8791.11990822791,-37226.45041065817,-14125.855460864957,-0.048,0.984,0.108,192.0,0.0,0.0,0.0,0.0,0.0,0.0,0.0,0.0,0.0,1676477935.060715,1
157,157.0,24030.4722226229,41480.926153770226,-40478.4057114608,-36705.78887531625,187500.0,8766.935320727269,-37113.417638947685,-13903.813231445936,-0.048,0.984,0.108,192.0,0.0,0.0,0.0,0.0,0.0,0.0,0.0,0.0,0.0,1676477935.060745,1
158,158.0,23814.509667695722,41337.6067683228,-40658.56077177057,-36748.07837582569,187500.0,8658.70817407467,-37877.0873400077,-14776.671204170134,-0.048,0.984,0.108,192.0,0.0,0.0,0.0,0.0,0.0,0.0,0.0,0.0,0.0,1676477935.060774,1
159,159.0,23711.199904823294,41218.09199072028,-40635.78434417061,-36696.825825789674,187500.0,8714.118148579377,-38020.45142894405,-14998.400509166779,-0.048,0.984,0.108,192.0,0.0,0.0,0.0,0.0,0.0,0.0,0.0,0.0,0.0,1676477935.060804,1
160,160.0,23925.955465549883,41375.13534726326,-40459.4514321627,-36620.33815626361,187500.0,8817.338504473986,-37277.81471941647,-14192.240141897219,-0.048,0.984,0.108,192.0,0.0,0.0,0.0,0.0,0.0,0.0,0.0,0.0,0.0,1676477935.060832,1
161,161.0,24089.190255306992,41552.6081982384,-40471.72253986866,-36633.10100234759,187500.0,8814.633943394892,-36969.38299767768,-13746.032267335924,-0.048,0.984,0.108,192.0,0.0,0.0,0.0,0.0,0.0,0.0,0.0,0.0,0.0,1676477935.06086,1
162,162.0,23901.122677460036,41429.20421710065,-40687.90861224039,-36697.78695080125,187500.0,8723.751750439615,-37687.5445470267,-14545.889442669088,-0.048,0.984,0.108,192.0,0.0,0.0,0.0,0.0,0.0,0.0,0.0,0.0,0.0,1676477935.06089,1
163,163.0,23747.767358752175,41270.39507274569,-40706.57231886057,-36657.73262473734,187500.0,8752.227872875676,-38016.71868762001,-14979.580340335411,-0.048,0.984,0.108,192.0,0.0,0.0,0.0,0.0,0.0,0.0,0.0,0.0,0.0,1676477935.060917,1
164,164.0,23924.234381226826,41379.963324065604,-40502.0091536056,-36569.39853064997,187500.0,8853.883606658412,-37354.86118255391,-14281.334195296073,-0.048,0.984,0.108,192.0,0.0,0.0,0.0,0.0,0.0,0.0,0.0,0.0,0.0,1676477935.060945,1
165,165.0,24137.000636696892,41580.190250896245,-40441.43592613172,-36562.402434635456,187500.0,8866.445287042296,-36878.50080472241,-13657.094676148257,-0.116,0.936,0.10200000000000001,192.0,252.0,96.0,29.0,64.0,3.0,48.0,0.0,0.0,0.0,1676477935.060975,1
166,166.0,23981.074867376672,41489.97861027463,-40636.343137781994,-36643.8521914306,187500.0,8764.834256748469,-37505.109608782484,-14335.045437222176,-0.116,0.936,0.10200000000000001,192.0,0.0,0.0,0.0,0.0,0.0,0.0,0.0,0.0,0.0,1676477935.120774,1
167,167.0,23767.41454212839,41298.245346337004,-40696.64814432242,-36643.427508285946,187500.0,8754.910082210312,-38022.53014117839,-14973.992404221584,-0.116,0.936,0.10200000000000001,192.0,0.0,0.0,0.0,0.0,0.0,0.0,0.0,0.0,0.0,1676477935.120816,1
168,168.0,23888.29277614269,41359.24325695554,-40502.903223383815,-36569.309123672145,187500.0,8845.434647254306,-37489.82101557506,-14443.496101319326,-0.116,0.936,0.10200000000000001,192.0,0.0,0.0,0.0,0.0,0.0,0.0,0.0,0.0,0.0,1676477935.120847,1
169,169.0,24122.941389434505,41567.85208795692,-40377.77815792301,-36547.292655383666,187500.0,8887.008891941177,-36879.68544717854,-13700.032377246902,-0.116,0.936,0.10200000000000001,192.0,0.0,0.0,0.0,0.0,0.0,0.0,0.0,0.0,0.0,1676477935.120878,1
170,170.0,24030.785147045273,41532.91631137327,-40531.08877314196,-36622.68508943142,187500.0,8785.107288969433,-37358.504516900124,-14176.61627252296,-0.116,0.936,0.10200000000000001,192.0,0.0,0.0,0.0,0.0,0.0,0.0,0.0,0.0,0.0,1676477935.120908,1
171,171.0,23795.264815719704,41322.92167221566,-40623.37912599792,-36635.26912155976,187500.0,8756.9664427002,-38022.06075454483,-14958.05561042495,-0.116,0.936,0.10200000000000001,192.0,0.0,0.0,0.0,0.0,0.0,0.0,0.0,0.0,0.0,1676477935.120954,1
172,172.0,23875.373467847523,41343.842905025835,-40452.969426270654,-36559.40730087845,187500.0,8854.17417933633,-37653.54754371018,-14606.216800953962,-0.116,0.936,0.10200000000000001,192.0,0.0,0.0,0.0,0.0,0.0,0.0,0.0,0.0,0.0,1676477935.120981,1
173,173.0,24148.06475020227,41570.53429729155,-40277.709397996594,-36501.426875761375,187500.0,8930.281869206652,-36914.665927251095,-13750.882595882726,-0.116,0.936,0.10200000000000001,192.0,0.0,0.0,0.0,0.0,0.0,0.0,0.0,0.0,0.0,1676477935.121006,1
174,174.0,24150.25522115889,41617.69647809225,-40377.50993698954,-36533.300463354644,187500.0,8883.052633172589,-37164.44667153915,-13965.079362997934,-0.116,0.936,0.10200000000000001,192.0,0.0,0.0,0.0,0.0,0.0,0.0,0.0,0.0,0.0,1676477935.121031,1
175,175.0,23912.700881087887,41420.1294088518,-40511.17336883228,-36554.646379309466,187500.0,8847.714525188747,-37894.83462510522,-14830.360094351781,-0.076,1.006,0.132,192.0,253.0,160.0,31.0,112.0,4.0,32.0,0.0,0.0,0.0,1676477935.121056,1
176,176.0,23934.136204020528,41400.7727981535,-40367.16107930674,-36470.02267480167,187500.0,8943.134122268453,-37665.6398374605,-14641.152577537607,-0.076,1.006,0.132,192.0,0.0,0.0,0.0,0.0,0.0,0.0,0.0,0.0,0.0,1676477935.121081,1
177,177.0,24213.175381800578,41625.45253341825,-40168.69994028806,-36398.43003731132,187500.0,9038.464312370339,-36870.07419706276,-13742.321877756343,-0.076,1.006,0.132,192.0,0.0,0.0,0.0,0.0,0.0,0.0,0.0,0.0,0.0,1676477935.121106,1
178,178.0,24300.771868320928,41748.342424433526,-40224.55694968187,-36423.598101568,187500.0,9004.154384631442,-36912.20723536101,-13717.109110010757,-0.076,1.006,0.132,192.0,0.0,0.0,0.0,0.0,0.0,0.0,0.0,0.0,0.0,1676477935.121131,1
179,179.0,24081.27773776981,41585.42055909879,-40376.72762593361,-36449.36966292497,187500.0,8956.120485796986,-37673.6417619755,-14606.216800953962,-0.076,1.006,0.132,192.0,0.0,0.0,0.0,0.0,0.0,0.0,0.0,0.0,0.0,1676477935.121156,1
180,180.0,24041.692798339463,41520.578148433946,-40283.654962021705,-36369.41747300833,187500.0,9054.378754422516,-37640.71764239283,-14629.663780887578,-0.076,1.006,0.132,192.0,0.0,0.0,0.0,0.0,0.0,0.0,0.0,0.0,0.0,1676477935.121181,1
181,181.0,24287.42787688111,41713.92073797235,-40090.13355852766,-36300.641155319354,187500.0,9143.584566543648,-36865.33562723823,-13761.812598921371,-0.076,1.006,0.132,192.0,0.0,0.0,0.0,0.0,0.0,0.0,0.0,0.0,0.0,1676477935.181166,1
182,182.0,24405.62390156077,41857.84362052007,-40123.080029854784,-36333.922902813305,187500.0,9117.477729019849,-36733.21446576291,-13518.91619192555,-0.076,1.006,0.132,192.0,0.0,0.0,0.0,0.0,0.0,0.0,0.0,0.0,0.0,1676477935.181206,1
183,183.0,24175.937375538037,41692.57482201753,-40310.857035023815,-36392.14919711938,187500.0,9044.611042095548,-37513.33505074204,-14408.001531124299,-0.076,1.006,0.132,192.0,0.0,0.0,0.0,0.0,0.0,0.0,0.0,0.0,0.0,1676477935.181235,1
184,184.0,24061.295278226768,41563.26998034358,-40280.01162767549,-36350.61965592142,187500.0,9068.37094645154,-37702.78843674522,-14679.888150678653,-0.076,1.006,0.132,192.0,0.0,0.0,0.0,0.0,0.0,0.0,0.0,0.0,0.0,1676477935.181261,1
185,185.0,24272.407504607145,41702.52134830014,-40086.55727941481,-36285.620783045386,187500.0,9152.90524398151,-36994.081675300804,-13899.387586043786,-0.068,0.9580000000000001,0.134,192.0,253.0,224.0,29.0,240.0,4.0,48.0,0.0,0.0,0.0,1676477935.181286,1
186,186.0,24429.74143382805,41867.14194621348,-40076.16371824309,-36309.91712926831,187500.0,9133.056894905198,-36695.97645950037,-13452.307993448734,-0.068,0.9580000000000001,0.134,192.0,0.0,0.0,0.0,0.0,0.0,0.0,0.0,0.0,0.0,1676477935.181311,1
187,187.0,24204.100573551725,41720.55920607557,-40291.83570049235,-36405.13556064791,187500.0,9013.408006835938,-37445.60926504246,-14276.841494660557,-0.068,0.9580000000000001,0.134,192.0,0.0,0.0,0.0,0.0,0.0,0.0,0.0,0.0,0.0,1676477935.181336,1
188,188.0,24001.392603086544,41523.997965335606,-40333.81227657942,-36410.99171769521,187500.0,9008.960009689334,-37845.213752414435,-14775.64302392519,-0.068,0.9580000000000001,0.134,192.0,0.0,0.0,0.0,0.0,0.0,0.0,0.0,0.0,0.0,1676477935.181361,1
189,189.0,24136.263029129866,41592.84133825795,-40168.744643776976,-36367.986961363196,187500.0,9077.93749307841,-37251.88669584831,-14130.661085922848,-0.068,0.9580000000000001,0.134,192.0,0.0,0.0,0.0,0.0,0.0,0.0,0.0,0.0,0.0,1676477935.181386,1
190,190.0,24324.28590348791,41767.65433164291,-40124.4211345221,-36388.90819417336,187500.0,9075.814077355157,-36807.62342305463,-13518.424453547534,-0.068,0.9580000000000001,0.134,192.0,0.0,0.0,0.0,0.0,0.0,0.0,0.0,0.0,0.0,1676477935.181411,1
191,191.0,24168.06956148977,41672.32414154102,-40324.98333751957,-36478.359875483504,187500.0,8957.215721275297,-37427.70551773376,-14181.645415025403,-0.068,0.9580000000000001,0.134,192.0,0.0,0.0,0.0,0.0,0.0,0.0,0.0,0.0,0.0,1676477935.181435,1
192,192.0,23931.92338131945,41453.27704587902,-40421.09583867739,-36498.27527979318,187500.0,8925.297430193119,-37971.478756842465,-14853.516501607479,-0.068,0.9580000000000001,0.134,192.0,0.0,0.0,0.0,0.0,0.0,0.0,0.0,0.0,0.0,1676477935.181476,1
193,193.0,24021.218600418404,41474.80177578948,-40284.4596248221,-36455.49404090572,187500.0,8988.754032701736,-37501.91330932538,-14362.761600346757,-0.068,0.9580000000000001,0.134,192.0,0.0,0.0,0.0,0.0,0.0,0.0,0.0,0.0,0.0,1676477935.181501,1
194,194.0,24240.98095190298,41662.91405712534,-40199.09831274728,-36460.34436945252,187500.0,9006.814242221624,-36912.49780803893,-13614.447547727532,-0.068,0.9580000000000001,0.134,192.0,0.0,0.0,0.0,0.0,0.0,0.0,0.0,0.0,0.0,1676477935.181526,1
195,195.0,24136.77711925234,41619.484617648675,-40382.06969285842,-36547.56087631713,187500.0,8911.014665486176,-37357.02930176607,-14060.275442633087,-0.036000000000000004,0.9480000000000001,0.146,192.0,254.0,224.0,29.0,160.0,4.0,144.0,0.0,0.0,0.0,1676477935.181551,1
196,196.0,23860.666019995933,41378.10812927582,-40526.327851572976,-36596.60060365208,187500.0,8842.350106519474,-38021.03257429988,-14866.748734325021,-0.036000000000000004,0.9480000000000001,0.146,192.0,0.0,0.0,0.0,0.0,0.0,0.0,0.0,0.0,0.0,1676477935.241463,1
197,197.0,23879.463837082843,41349.632006839754,-40416.04434443049,-36556.90390549945,187500.0,8886.181877396331,-37701.648497778,-14554.204291606462,-0.036000000000000004,0.9480000000000001,0.146,192.0,0.0,0.0,0.0,0.0,0.0,0.0,0.0,0.0,0.0,1676477935.241505,1
198,198.0,24114.939464919506,41542.03582311104,-40294.78613076045,-36531.914655198416,187500.0,8924.917450537378,-37026.69287046109,-13726.318028726344,-0.036000000000000004,0.9480000000000001,0.146,192.0,0.0,0.0,0.0,0.0,0.0,0.0,0.0,0.0,0.0,1676477935.241536,1
199,199.0,24080.406019736056,41553.94930290572,-40453.17059197075,-36626.1943133109,187500.0,8832.761208148147,-37305.86615870788,-13952.651793080782,-0.036000000000000004,0.9480000000000001,0.146,192.0,0.0,0.0,0.0,0.0,0.0,0.0,0.0,0.0,0.0,1676477935.241566,1
200,200.0,23794.057821519116,41310.8517302098,-40643.00395762968,-36696.334087411655,187500.0,8745.052962905522,-38066.11604286624,-14853.829426029853,-0.036000000000000004,0.9480000000000001,0.146,192.0,0.0,0.0,0.0,0.0,0.0,0.0,0.0,0.0,0.0,1676477935.241596,1
201,201.0,23762.89948974842,41240.06375551984,-40559.095508944454,-36652.47996479034,187500.0,8796.037292008077,-37916.4487619935,-14738.762645573932,-0.036000000000000004,0.9480000000000001,0.146,192.0,0.0,0.0,0.0,0.0,0.0,0.0,0.0,0.0,0.0,1676477935.241626,1
202,202.0,24000.163257141503,41418.631841973285,-40400.77810296752,-36614.63846142751,187500.0,8855.314118303551,-37194.84504399837,-13896.235990075587,-0.036000000000000004,0.9480000000000001,0.146,192.0,0.0,0.0,0.0,0.0,0.0,0.0,0.0,0.0,0.0,1676477935.241655,1
203,203.0,24035.143737214057,41499.00871503457,-40494.25309827961,-36679.74909302581,187500.0,8776.434812120773,-37264.11310006536,-13874.21952178711,-0.036000000000000004,0.9480000000000001,0.146,192.0,0.0,0.0,0.0,0.0,0.0,0.0,0.0,0.0,0.0,1676477935.241685,1
204,204.0,23770.36497239649,41291.897450911696,-40696.84931002251,-36751.45348923844,187500.0,8681.90928481928,-38054.22491481601,-14797.815954424854,-0.036000000000000004,0.9480000000000001,0.146,192.0,0.0,0.0,0.0,0.0,0.0,0.0,0.0,0.0,0.0,1676477935.241714,1
205,205.0,23673.82778809402,41166.95119940653,-40667.36735908596,-36721.70331736843,187500.0,8715.995695113623,-38103.71167704006,-14905.126679554784,-0.062,0.966,0.148,192.0,254.0,16.0,30.0,48.0,4.0,160.0,0.0,0.0,0.0,1676477935.241743,1
206,206.0,23887.979851720316,41316.707887257086,-40503.171444317275,-36669.57904929865,187500.0,8783.319149413008,-37399.36350576443,-14097.871076806912,-0.062,0.966,0.148,192.0,0.0,0.0,0.0,0.0,0.0,0.0,0.0,0.0,0.0,1676477935.24177,1
207,207.0,23996.85519896212,41439.0836881499,-40544.25395062613,-36712.22617771938,187500.0,8755.44652407724,-37273.925515881245,-13840.31192544841,-0.062,0.966,0.148,192.0,0.0,0.0,0.0,0.0,0.0,0.0,0.0,0.0,0.0,1676477935.2418,1
208,208.0,23763.99472522673,41269.7915756454,-40745.35259549053,-36791.127835646614,187500.0,8659.42342989724,-38035.20358028455,-14715.159203429128,-0.062,0.966,0.148,192.0,0.0,0.0,0.0,0.0,0.0,0.0,0.0,0.0,0.0,1676477935.241828,1
209,209.0,23622.48583108018,41120.683088384045,-40738.714127387306,-36769.3795882916,187500.0,8676.678976616739,-38249.66856833322,-15026.362541480368,-0.062,0.966,0.148,192.0,0.0,0.0,0.0,0.0,0.0,0.0,0.0,0.0,0.0,1676477935.241856,1
210,210.0,23811.089850794062,41246.657520134155,-40555.31806413151,-36706.03474450526,187500.0,8727.126863852365,-37584.90533648793,-14301.964855428321,-0.062,0.966,0.148,192.0,0.0,0.0,0.0,0.0,0.0,0.0,0.0,0.0,0.0,1676477935.241886,1
211,211.0,23978.593823742132,41412.708629692635,-40529.054764396526,-36724.296119725244,187500.0,8706.071520575468,-37248.80215511348,-13838.769655080994,-0.062,0.966,0.148,192.0,0.0,0.0,0.0,0.0,0.0,0.0,0.0,0.0,0.0,1676477935.301848,1
212,212.0,23791.50972265121,41287.337695042814,-40721.212711478795,-36798.66037352805,187500.0,8621.537223045496,-37917.47694223845,-14597.052585727286,-0.062,0.966,0.148,192.0,0.0,0.0,0.0,0.0,0.0,0.0,0.0,0.0,0.0,1676477935.30189,1
213,213.0,23608.38188032888,41105.595660876716,-40757.8695723855,-36786.657486755554,187500.0,8630.522624316529,-38297.97068810114,-15096.6140743034,-0.062,0.966,0.148,192.0,0.0,0.0,0.0,0.0,0.0,0.0,0.0,0.0,0.0,1676477935.301921,1
214,214.0,23768.599184584524,41196.902536976646,-40573.579439351495,-36716.07067776569,187500.0,8715.235735802144,-37716.311242140684,-14486.098526251142,-0.062,0.966,0.148,192.0,0.0,0.0,0.0,0.0,0.0,0.0,0.0,0.0,0.0,1676477935.301967,1
215,215.0,23988.31683258019,41407.41126625673,-40488.776920888056,-36703.44194214844,187500.0,8742.102532637422,-37228.57382638143,-13857.008678556524,-0.074,1.004,0.128,192.0,253.0,176.0,31.0,96.0,4.0,0.0,0.0,0.0,0.0,1676477935.301994,1
216,216.0,23857.089740883082,41345.586341093345,-40658.918399681854,-36770.11719585862,187500.0,8655.154246706277,-37775.49866145833,-14445.95479320941,-0.074,1.004,0.128,192.0,0.0,0.0,0.0,0.0,0.0,0.0,0.0,0.0,0.0,1676477935.30202,1
217,217.0,23641.753034800655,41147.6616439416,-40733.461467440306,-36771.65946622604,187500.0,8649.90158675928,-38298.84240613489,-15099.743318527142,-0.074,1.004,0.128,192.0,0.0,0.0,0.0,0.0,0.0,0.0,0.0,0.0,0.0,1676477935.302045,1
218,218.0,23748.32615236356,41197.55073756585,-40561.576552579,-36693.182491443455,187500.0,8727.640953974838,-37847.672444304524,-14645.444112473026,-0.074,1.004,0.128,192.0,0.0,0.0,0.0,0.0,0.0,0.0,0.0,0.0,0.0,1676477935.30207,1
219,219.0,23994.37415532758,41415.971984383104,-40434.21631267265,-36654.29045609122,187500.0,8767.918797483302,-37238.766221853046,-13895.766603442027,-0.074,1.004,0.128,192.0,0.0,0.0,0.0,0.0,0.0,0.0,0.0,0.0,0.0,1676477935.302095,1
220,220.0,23933.93503832043,41403.03032434348,-40585.20234646826,-36729.951111072434,187500.0,8694.314502991976,-37622.16569449493,-14282.854113919035,-0.074,1.004,0.128,192.0,0.0,0.0,0.0,0.0,0.0,0.0,0.0,0.0,0.0,1676477935.30212,1
221,221.0,23703.10857333047,41208.078409204296,-40702.549004858614,-36750.47001248241,187500.0,8647.062915213457,-38259.95037078266,-15057.78909418453,-0.074,1.004,0.128,192.0,0.0,0.0,0.0,0.0,0.0,0.0,0.0,0.0,0.0,1676477935.302144,1
222,222.0,23749.019056441673,41212.39229588417,-40569.77964279409,-36676.7092557799,187500.0,8723.662343461794,-37964.79558525033,-14787.26593104195,-0.074,1.004,0.128,192.0,0.0,0.0,0.0,0.0,0.0,0.0,0.0,0.0,0.0,1676477935.302169,1
223,223.0,23984.69584997843,41408.372391268305,-40436.67500456274,-36644.72390946435,187500.0,8780.838105778468,-37306.715524997184,-13996.86354361338,-0.074,1.004,0.128,192.0,0.0,0.0,0.0,0.0,0.0,0.0,0.0,0.0,0.0,1676477935.302194,1
224,224.0,23979.93492840945,41456.92038022523,-40545.952683204734,-36699.82095954668,187500.0,8720.711913193692,-37509.177626273355,-14149.771827432136,-0.074,0.992,0.084,192.0,253.0,176.0,31.0,0.0,2.0,160.0,0.0,0.0,0.0,1676477935.302219,1
225,225.0,23747.834413985544,41268.36106400026,-40686.81337676208,-36741.75283214484,187500.0,8666.486581145118,-38200.517082276,-14982.463715370146,-0.074,0.992,0.084,192.0,0.0,0.0,0.0,0.0,0.0,0.0,0.0,0.0,0.0,1676477935.302244,1
226,226.0,23730.668274243864,41210.15712143864,-40602.39083795439,-36692.78016004326,187500.0,8715.794529413526,-38082.54457504089,-14918.537726227967,-0.074,0.992,0.084,192.0,0.0,0.0,0.0,0.0,0.0,0.0,0.0,0.0,0.0,1676477935.361407,1
227,227.0,23954.520994963765,41389.082835803376,-40440.81007728697,-36638.62188322805,187500.0,8799.099480998455,-37390.26634577112,-14127.442434721284,-0.074,0.992,0.084,192.0,0.0,0.0,0.0,0.0,0.0,0.0,0.0,0.0,0.0,1676477935.361449,1
228,228.0,24016.94941722744,41481.619057848344,-40506.948889130224,-36679.704389536906,187500.0,8741.163759370298,-37400.816369154025,-14053.078180918477,-0.074,0.992,0.084,192.0,0.0,0.0,0.0,0.0,0.0,0.0,0.0,0.0,0.0,1676477935.36148,1
229,229.0,23790.23567321726,41305.040276651416,-40666.070957907556,-36728.69941338294,187500.0,8656.741220562604,-38096.58147055882,-14881.99262404354,-0.074,0.992,0.084,192.0,0.0,0.0,0.0,0.0,0.0,0.0,0.0,0.0,0.0,1676477935.36151,1
230,230.0,23709.7470414337,41203.49630159096,-40611.80092237007,-36690.2097094309,187500.0,8705.624485686361,-38144.570665904364,-15003.541410391499,-0.074,0.992,0.084,192.0,0.0,0.0,0.0,0.0,0.0,0.0,0.0,0.0,0.0,1676477935.36154,1
231,231.0,23924.167325993458,41360.65141685622,-40432.227007416135,-36629.636481957015,187500.0,8784.347329657952,-37477.48285263572,-14253.506273449217,-0.074,0.992,0.084,192.0,0.0,0.0,0.0,0.0,0.0,0.0,0.0,0.0,0.0,1676477935.361569,1
232,232.0,24047.95128678695,41498.42756967874,-40445.54864711149,-36654.26810434677,187500.0,8755.40182058833,-37298.33362082644,-13961.391325162807,-0.074,0.992,0.084,192.0,0.0,0.0,0.0,0.0,0.0,0.0,0.0,0.0,0.0,1676477935.361599,1
233,233.0,23849.06546462363,41358.95268427762,-40620.54045445209,-36720.71984061239,187500.0,8672.85682831488,-37961.822803237774,-14737.645058351167,-0.074,0.992,0.084,192.0,0.0,0.0,0.0,0.0,0.0,0.0,0.0,0.0,0.0,1676477935.361628,1
234,234.0,23719.827678183043,41220.61773784372,-40621.59098644149,-36696.55760485621,187500.0,8702.405834484796,-38180.82519541087,-15054.592794727421,-0.04,0.99,0.056,192.0,254.0,192.0,30.0,240.0,1.0,192.0,0.0,0.0,0.0,1676477935.361658,1
235,235.0,23900.25095942628,41342.74766954752,-40447.180324456735,-36625.367298766054,187500.0,8781.843934278957,-37575.89758347244,-14386.27563551374,-0.04,0.99,0.056,192.0,0.0,0.0,0.0,0.0,0.0,0.0,0.0,0.0,0.0,1676477935.361703,1
236,236.0,24076.986202834392,41515.37019197586,-40410.43405657221,-36624.76380166576,187500.0,8787.70009132625,-37231.70307060517,-13897.957074398646,-0.04,0.99,0.056,192.0,0.0,0.0,0.0,0.0,0.0,0.0,0.0,0.0,0.0,1676477935.36173,1
237,237.0,23926.53661090572,41421.76108619703,-40577.356884164445,-36679.413816858985,187500.0,8721.62833471636,-37801.53844374877,-14534.802977419255,-0.04,0.99,0.056,192.0,0.0,0.0,0.0,0.0,0.0,0.0,0.0,0.0,0.0,1676477935.361756,1
238,238.0,23750.494271575724,41256.62639816122,-40617.411210228354,-36658.805508471196,187500.0,8732.893613921835,-38161.51328820149,-15006.581247637421,-0.04,0.99,0.056,192.0,0.0,0.0,0.0,0.0,0.0,0.0,0.0,0.0,0.0,1676477935.361781,1
239,239.0,23883.129523173517,41334.254006654504,-40464.301760709495,-36587.99518203678,187500.0,8818.612553907938,-37656.9897123563,-14464.171464940486,-0.04,0.99,0.056,192.0,0.0,0.0,0.0,0.0,0.0,0.0,0.0,0.0,0.0,1676477935.361806,1
240,240.0,24096.76749667734,41525.942567103215,-40401.02397215652,-36573.354789418554,187500.0,8834.996382593677,-37194.93445097619,-13843.061190016413,-0.04,0.99,0.056,192.0,0.0,0.0,0.0,0.0,0.0,0.0,0.0,0.0,0.0,1676477935.361831,1
241,241.0,23998.822152474186,41485.485909639116,-40566.53863984807,-36638.42071752795,187500.0,8750.909119952812,-37658.80020365718,-14335.403065133461,-0.04,0.99,0.056,192.0,0.0,0.0,0.0,0.0,0.0,0.0,0.0,0.0,0.0,1676477935.421665,1
242,242.0,23794.6166151305,41309.89060519822,-40654.82803044654,-36641.01351988477,187500.0,8726.925698152269,-38152.46083169709,-14969.745572775075,-0.04,0.99,0.056,192.0,0.0,0.0,0.0,0.0,0.0,0.0,0.0,0.0,0.0,1676477935.421708,1
243,243.0,23881.453142339367,41342.63591082524,-40517.94594740224,-36575.76877781973,187500.0,8807.50373691365,-37769.48604219986,-14579.8417424967,-0.04,0.99,0.056,192.0,0.0,0.0,0.0,0.0,0.0,0.0,0.0,0.0,0.0,1676477935.42174,1
244,244.0,24105.462325270455,41533.09512532892,-40405.3378588364,-36542.01764369221,187500.0,8846.842807154992,-37197.236680655085,-13858.59565241285,-0.074,0.972,0.03,192.0,253.0,176.0,30.0,96.0,0.0,240.0,0.0,0.0,0.0,1676477935.42177,1
245,245.0,24065.47505443991,41534.65974744079,-40524.20443584972,-36600.221586253836,187500.0,8775.808963276026,-37502.248585492205,-14166.826208451535,-0.074,0.972,0.03,192.0,0.0,0.0,0.0,0.0,0.0,0.0,0.0,0.0,0.0,1676477935.4218,1
246,246.0,23849.04311287917,41347.955626005605,-40634.13031508092,-36630.32938603513,187500.0,8709.066654332479,-38096.268546136445,-14930.205336833638,-0.074,0.972,0.03,192.0,0.0,0.0,0.0,0.0,0.0,0.0,0.0,0.0,0.0,1676477935.42183,1
247,247.0,23868.846758466574,41324.396887349714,-40524.5173602721,-36573.62301035202,187500.0,8791.365777416919,-37868.41486315904,-14716.075624951796,-0.074,0.972,0.03,192.0,0.0,0.0,0.0,0.0,0.0,0.0,0.0,0.0,0.0,1676477935.421859,1
248,248.0,24102.62365372463,41518.320622243955,-40376.772329422514,-36514.167370100906,187500.0,8878.157601136876,-37246.879905090325,-13937.586717317907,-0.074,0.972,0.03,192.0,0.0,0.0,0.0,0.0,0.0,0.0,0.0,0.0,0.0,1676477935.421889,1
249,249.0,24123.231962112422,41574.7140735047,-40464.949961298706,-36568.61621959403,187500.0,8810.811795093035,-37392.769741150114,-14033.475701031173,-0.074,0.972,0.03,192.0,0.0,0.0,0.0,0.0,0.0,0.0,0.0,0.0,0.0,1676477935.421918,1
250,250.0,23905.5930263511,41397.77766439649,-40596.22175648472,-36609.944595091896,187500.0,8767.382355616373,-38031.8284668718,-14814.915038933164,-0.074,0.972,0.03,192.0,0.0,0.0,0.0,0.0,0.0,0.0,0.0,0.0,0.0,1676477935.421947,1
251,251.0,23866.611584021044,41332.756439776,-40506.747723430126,-36566.1798794484,187500.0,8804.150975245355,-37958.38063459166,-14796.720718946544,-0.074,0.972,0.03,192.0,0.0,0.0,0.0,0.0,0.0,0.0,0.0,0.0,0.0,1676477935.421976,1
252,252.0,24093.57119722023,41520.55579668949,-40329.520741643995,-36505.27137580769,187500.0,8864.254816085675,-37332.35297588742,-14052.787608240558,-0.074,0.972,0.03,192.0,0.0,0.0,0.0,0.0,0.0,0.0,0.0,0.0,0.0,1676477935.422005,1
253,253.0,24181.03357327385,41636.38253645689,-40353.95119833365,-36528.13721038547,187500.0,8843.780618164614,-37293.97503065765,-13914.385606573298,-0.074,0.972,0.03,192.0,0.0,0.0,0.0,0.0,0.0,0.0,0.0,0.0,0.0,1676477935.422034,1
254,254.0,23982.907710422005,41490.73856958611,-40491.39207498933,-36564.347036403065,187500.0,8799.88179205439,-37920.20385506199,-14662.56554872579,-0.036000000000000004,0.976,0.014,192.0,254.0,224.0,30.0,128.0,0.0,112.0,0.0,0.0,0.0,1676477935.422061,1
255,255.0,23897.25582566927,41388.59109742536,-40456.85862980588,-36531.221751120305,187500.0,8851.626080468426,-38006.928623548585,-14817.373730823247,-0.036000000000000004,0.976,0.014,192.0,0.0,0.0,0.0,0.0,0.0,0.0,0.0,0.0,0.0,1676477935.422089,1
256,0.0,24097.438049010998,41534.547988718514,-40295.88136623876,-36464.70295962131,187500.0,8905.002046227699,-37416.86492167293,-14120.356931728951,-0.036000000000000004,0.976,0.014,192.0,0.0,0.0,0.0,0.0,0.0,0.0,0.0,0.0,0.0,1676477935.482556,1
257,1.0,24238.388149546165,41687.41156904836,-40290.33813361384,-36462.60189564251,187500.0,8894.004987955688,-37216.28036693101,-13780.431602052642,-0.036000000000000004,0.976,0.014,192.0,0.0,0.0,0.0,0.0,0.0,0.0,0.0,0.0,0.0,1676477935.482596,1
258,2.0,24065.85503409565,41573.44002407075,-40444.14048721081,-36505.27137580769,187500.0,8839.89141462939,-37796.66576345751,-14457.644755559535,-0.036000000000000004,0.976,0.014,192.0,0.0,0.0,0.0,0.0,0.0,0.0,0.0,0.0,0.0,1676477935.482625,1
259,3.0,23942.339294235622,41446.817391731434,-40447.62735934584,-36473.956581825805,187500.0,8871.385022566918,-38018.260957987426,-14776.000651836473,-0.036000000000000004,0.976,0.014,192.0,0.0,0.0,0.0,0.0,0.0,0.0,0.0,0.0,0.0,1676477935.482651,1
260,4.0,24125.91417144706,41572.165974636795,-40277.66469450769,-36381.57682199202,187500.0,8953.214759017797,-37469.592686843,-14160.768885704147,-0.036000000000000004,0.976,0.014,192.0,0.0,0.0,0.0,0.0,0.0,0.0,0.0,0.0,0.0,1676477935.482676,1
261,5.0,24311.500705659477,41746.867209299475,-40243.57828421334,-36372.367903276434,187500.0,8967.363413258006,-37133.15422930172,-13673.545560067363,-0.036000000000000004,0.976,0.014,192.0,0.0,0.0,0.0,0.0,0.0,0.0,0.0,0.0,0.0,1676477935.482701,1
262,6.0,24184.587500642243,41667.317350783036,-40407.70714374866,-36429.25309291519,187500.0,8900.28582814763,-37655.46979373333,-14264.480979976772,-0.036000000000000004,0.976,0.014,192.0,0.0,0.0,0.0,0.0,0.0,0.0,0.0,0.0,0.0,1676477935.482726,1
263,7.0,24016.591789316153,41513.06796229696,-40456.679815850235,-36420.02182245515,187500.0,8909.874726518956,-38021.412553955626,-14758.052201038863,-0.036000000000000004,0.976,0.014,192.0,0.0,0.0,0.0,0.0,0.0,0.0,0.0,0.0,0.0,1676477935.482751,1
264,8.0,24136.933581463527,41592.66252430231,-40308.95713674511,-36341.276626739105,187500.0,8991.145669358453,-37573.19302239335,-14291.660701234425,-0.08600000000000001,0.984,0.01,192.0,253.0,80.0,30.0,192.0,0.0,80.0,0.0,0.0,0.0,1676477935.482776,1
265,9.0,24343.128424063736,41782.250020772226,-40228.58026368383,-36314.74510607065,187500.0,9029.41185586594,-37115.943386071136,-13693.460964377042,-0.08600000000000001,0.984,0.01,192.0,0.0,0.0,0.0,0.0,0.0,0.0,0.0,0.0,0.0,1676477935.482801,1
266,10.0,24252.983838675482,41740.83223829654,-40366.84815488436,-36370.02097010863,187500.0,8970.135029570465,-37505.33312622704,-14115.283085737598,-0.08600000000000001,0.984,0.01,192.0,0.0,0.0,0.0,0.0,0.0,0.0,0.0,0.0,0.0,1676477935.482826,1
267,11.0,24069.498368441866,41575.094053160436,-40430.416516115256,-36364.902420628365,187500.0,8975.074765095087,-37945.349567574216,-14704.251552134938,-0.08600000000000001,0.984,0.01,192.0,0.0,0.0,0.0,0.0,0.0,0.0,0.0,0.0,0.0,1676477935.482851,1
268,12.0,24171.757599324894,41621.42921941629,-40277.26236310749,-36287.453626090726,187500.0,9065.196998738886,-37589.80036852365,-14370.98704230631,-0.08600000000000001,0.984,0.01,192.0,0.0,0.0,0.0,0.0,0.0,0.0,0.0,0.0,0.0,1676477935.482876,1
269,13.0,24406.965006228093,41826.55117828264,-40142.794268464364,-36240.090279589924,187500.0,9099.015188099766,-37034.985367654015,-13699.09360397978,-0.08600000000000001,0.984,0.01,192.0,0.0,0.0,0.0,0.0,0.0,0.0,0.0,0.0,0.0,1676477935.4829,1
270,14.0,24378.91356693668,41848.81351576013,-40239.86789463376,-36282.268021377095,187500.0,9049.751943320269,-37272.51735598056,-13925.963810201147,-0.08600000000000001,0.984,0.01,192.0,0.0,0.0,0.0,0.0,0.0,0.0,0.0,0.0,0.0,1676477935.482925,1
271,15.0,24178.910157550596,41682.49418526819,-40336.874465569796,-36302.85397802043,187500.0,9016.894878970967,-37813.11664737662,-14607.535553876825,-0.08600000000000001,0.984,0.01,192.0,0.0,0.0,0.0,0.0,0.0,0.0,0.0,0.0,0.0,1676477935.542202,1
272,16.0,24217.913951625105,41683.790586446594,-40211.10119951978,-36239.79970691201,187500.0,9102.479708490338,-37603.278470430196,-14429.794481968223,-0.08600000000000001,0.984,0.01,192.0,0.0,0.0,0.0,0.0,0.0,0.0,0.0,0.0,0.0,1676477935.542246,1
273,17.0,24457.07761729689,41887.14675750098,-40040.44563060351,-36171.91745900124,187500.0,9197.206401491929,-37001.65891667115,-13711.767043085938,-0.08600000000000001,0.984,0.01,192.0,0.0,0.0,0.0,0.0,0.0,0.0,0.0,0.0,0.0,1676477935.542278,1
274,18.0,24495.142638104277,41967.47892707335,-40083.62920089116,-36189.95531677667,187500.0,9162.181217930463,-37063.349731367794,-13726.295676981888,-0.046,0.984,0.062,192.0,254.0,144.0,30.0,192.0,1.0,240.0,0.0,0.0,0.0,1676477935.542308,1
275,19.0,24290.3336036603,41807.17221583989,-40200.77469358143,-36223.92996834874,187500.0,9123.557403511692,-37627.21718874183,-14420.04912138571,-0.046,0.984,0.062,192.0,0.0,0.0,0.0,0.0,0.0,0.0,0.0,0.0,0.0,1676477935.542338,1
276,20.0,24258.5270713004,41751.24815121271,-40130.970195647504,-36176.32075265894,187500.0,9181.023738506286,-37582.938382975866,-14417.255153328795,-0.046,0.984,0.062,192.0,0.0,0.0,0.0,0.0,0.0,0.0,0.0,0.0,0.0,1676477935.542368,1
277,21.0,24480.479893741598,41927.983394620824,-39974.44092922699,-36114.406420517735,187500.0,9258.606643510657,-37016.81339941185,-13730.140177028201,-0.046,0.984,0.062,192.0,0.0,0.0,0.0,0.0,0.0,0.0,0.0,0.0,0.0,1676477935.542398,1
278,22.0,24580.19102575672,42050.15802981354,-39989.08132184522,-36124.621167733814,187500.0,9276.063355930251,-36940.75041303044,-13561.406858135088,-0.046,0.984,0.062,192.0,0.0,0.0,0.0,0.0,0.0,0.0,0.0,0.0,0.0,1676477935.542445,1
279,23.0,24389.44123857513,41905.139911787504,-40118.07323909679,-36164.65314205326,187500.0,9200.53681141577,-37481.617925359955,-14220.358636421995,-0.046,0.984,0.062,192.0,0.0,0.0,0.0,0.0,0.0,0.0,0.0,0.0,0.0,1676477935.542472,1
280,24.0,24291.540597860887,41788.12852956397,-40101.44354122204,-36144.87184821032,187500.0,9239.048867112264,-37585.441778354856,-14388.08612681462,-0.046,0.984,0.062,192.0,0.0,0.0,0.0,0.0,0.0,0.0,0.0,0.0,0.0,1676477935.542497,1
281,25.0,24468.78993139147,41906.07868505463,-39972.228106525916,-36103.3199552679,187500.0,9296.090518962208,-37090.19417645862,-13789.148782390212,-0.046,0.984,0.062,192.0,0.0,0.0,0.0,0.0,0.0,0.0,0.0,0.0,0.0,1676477935.542522,1
282,26.0,24594.026755574556,42040.971462842404,-39976.51964146133,-36117.91564439722,187500.0,9269.201370382472,-36902.148950356124,-13490.529476467309,-0.046,0.984,0.062,192.0,0.0,0.0,0.0,0.0,0.0,0.0,0.0,0.0,0.0,1676477935.542547,1
283,27.0,24400.751221269515,41912.761856646764,-40134.70293697154,-36169.16819443324,187500.0,9202.459061438925,-37410.00293612515,-14106.767071100125,-0.046,0.984,0.062,192.0,0.0,0.0,0.0,0.0,0.0,0.0,0.0,0.0,0.0,1676477935.542572,1
284,28.0,24258.370609089212,41766.715558375785,-40157.63582678269,-36155.26540938204,187500.0,9215.356017989638,-37623.752668351255,-14429.638019757036,-0.062,0.98,0.134,192.0,254.0,16.0,30.0,160.0,4.0,48.0,0.0,0.0,0.0,1676477935.542597,1
285,29.0,24400.30418638041,41854.53556234069,-40042.16671492657,-36118.98852813107,187500.0,9293.31890264975,-37188.74301776207,-13938.458435351664,-0.062,0.98,0.134,192.0,0.0,0.0,0.0,0.0,0.0,0.0,0.0,0.0,0.0,1676477935.542622,1
286,30.0,24557.660467345773,42004.135787980056,-40024.508836806875,-36126.81163869043,187500.0,9306.349969667193,-36889.96724962798,-13517.128052369126,-0.062,0.98,0.134,192.0,0.0,0.0,0.0,0.0,0.0,0.0,0.0,0.0,0.0,1676477935.566099,1
287,31.0,24407.54615158393,41897.652077394974,-40193.77859756692,-36191.40818016627,187500.0,9192.065500267208,-37323.09935368292,-14020.24346831363,-0.062,0.98,0.134,192.0,0.0,0.0,0.0,0.0,0.0,0.0,0.0,0.0,0.0,1676477935.566142,1
288,32.0,24202.044213061836,41703.25895586717,-40278.625819519264,-36231.93189286374,187500.0,9165.511627854303,-37661.54946822518,-14511.8253841192,-0.062,0.98,0.134,192.0,0.0,0.0,0.0,0.0,0.0,0.0,0.0,0.0,0.0,1676477935.566174,1
289,33.0,24288.72427805952,41748.342424433526,-40177.730045048,-36198.650145369786,187500.0,9192.780756089778,-37309.375382587365,-14159.09250487,-0.062,0.98,0.134,192.0,0.0,0.0,0.0,0.0,0.0,0.0,0.0,0.0,0.0,1676477935.619596,1
290,34.0,24472.32150701541,41914.88527237002,-40121.962442632015,-36200.12536050384,187500.0,9197.273456725296,-36919.87388370918,-13673.366746111722,-0.062,0.98,0.134,192.0,0.0,0.0,0.0,0.0,0.0,0.0,0.0,0.0,0.0,1676477935.619635,1
291,35.0,24353.43257825763,41855.496687352264,-40273.12729038326,-36291.02990520357,187500.0,9101.272714289751,-37254.25598076057,-14076.435753874273,-0.062,0.98,0.134,192.0,0.0,0.0,0.0,0.0,0.0,0.0,0.0,0.0,0.0,1676477935.619667,1
292,36.0,24106.19993283748,41645.12206853891,-40381.533250991495,-36348.71975764272,187500.0,9039.470140870826,-37683.76710221376,-14652.820188143276,-0.062,0.98,0.134,192.0,0.0,0.0,0.0,0.0,0.0,0.0,0.0,0.0,0.0,1676477935.619697,1
293,37.0,24124.23779061291,41625.296071207056,-40302.743351786536,-36336.091022025474,187500.0,9061.08427775911,-37444.80460224207,-14425.055912143698,-0.088,0.912,0.134,192.0,253.0,64.0,28.0,128.0,4.0,48.0,0.0,0.0,0.0,1676477935.619727,1
294,38.0,24311.076022514826,41786.27333477418,-40217.67261238964,-36332.89472256836,187500.0,9073.578902909625,-37005.70458241756,-13883.048460846956,-0.088,0.912,0.134,192.0,0.0,0.0,0.0,0.0,0.0,0.0,0.0,0.0,0.0,1676477935.619757,1
295,39.0,24254.347295087256,41776.39386372493,-40334.84045682436,-36412.95867120727,187500.0,8987.457631523328,-37225.355175179866,-14110.678626379804,-0.088,0.912,0.134,192.0,0.0,0.0,0.0,0.0,0.0,0.0,0.0,0.0,0.0,1676477935.619786,1
296,40.0,24012.166143914004,41565.303989089014,-40464.56998164296,-36479.768035384186,187500.0,8928.091398250031,-37716.13242818504,-14727.63147683519,-0.088,0.912,0.134,192.0,0.0,0.0,0.0,0.0,0.0,0.0,0.0,0.0,0.0,1676477935.619816,1
297,41.0,23981.70071622142,41504.86487208186,-40402.163911123745,-36468.81568060108,187500.0,8949.817293860591,-37590.98501097978,-14616.252734214395,-0.088,0.912,0.134,192.0,0.0,0.0,0.0,0.0,0.0,0.0,0.0,0.0,0.0,1676477935.619844,1
298,42.0,24170.438846402034,41659.762461157145,-40290.852223736314,-36448.60970361349,187500.0,8970.671471437392,-37121.7101361406,-14030.502919018618,-0.088,0.912,0.134,192.0,0.0,0.0,0.0,0.0,0.0,0.0,0.0,0.0,0.0,1676477935.619873,1
299,43.0,24180.564186640288,41702.56605178906,-40371.13968981978,-36510.61344273251,187500.0,8907.259572417686,-37206.467951115126,-14069.663175304315,-0.088,0.912,0.134,192.0,0.0,0.0,0.0,0.0,0.0,0.0,0.0,0.0,0.0,1676477935.619918,1
300,44.0,23942.98749482483,41509.62579365084,-40513.386191533355,-36579.61327786604,187500.0,8840.249042540676,-37727.218893434874,-14706.19615390255,-0.088,0.912,0.134,192.0,0.0,0.0,0.0,0.0,0.0,0.0,0.0,0.0,0.0,1676477935.619946,1
301,45.0,23867.170377632425,41410.27228954701,-40478.361007971886,-36570.80669055065,187500.0,8856.051725870577,-37722.21210267688,-14733.621744349211,-0.088,0.912,0.134,192.0,0.0,0.0,0.0,0.0,0.0,0.0,0.0,0.0,0.0,1676477935.619971,1
302,46.0,24047.548955386756,41548.83075342545,-40357.616884424315,-36532.249931365244,187500.0,8892.373310610452,-37245.89642833429,-14158.779580447625,-0.088,0.912,0.134,192.0,0.0,0.0,0.0,0.0,0.0,0.0,0.0,0.0,0.0,1676477935.619996,1
303,47.0,24122.136726634115,41645.23382726119,-40394.16198660874,-36565.263457925736,187500.0,8845.32288853203,-37193.99567770907,-14031.329933563464,-0.07200000000000001,0.928,0.114,192.0,253.0,192.0,29.0,0.0,3.0,144.0,0.0,0.0,0.0,1676477935.620021,1
304,48.0,23899.178075692427,41473.930057755715,-40541.95172094723,-36634.77738318174,187500.0,8785.889600025368,-37703.660154778976,-14649.04274333033,-0.07200000000000001,0.928,0.114,192.0,0.0,0.0,0.0,0.0,0.0,0.0,0.0,0.0,0.0,1676477935.67047,1
305,49.0,23784.26775744769,41346.03337598245,-40528.898302185335,-36626.998976111296,187500.0,8821.205356264754,-37805.82997868419,-14809.572972008345,-0.07200000000000001,0.928,0.114,192.0,0.0,0.0,0.0,0.0,0.0,0.0,0.0,0.0,0.0,1676477935.670512,1
306,50.0,23957.583183954142,41470.73375829861,-40395.12311162032,-36578.383931921,187500.0,8841.36662976344,-37349.34030167345,-14264.25746253222,-0.07200000000000001,0.928,0.114,192.0,0.0,0.0,0.0,0.0,0.0,0.0,0.0,0.0,0.0,1676477935.670544,1
307,51.0,24087.089191328192,41606.67706807578,-40389.42341678422,-36590.29741171568,187500.0,8807.682550869293,-37165.20663085063,-13981.731412617137,-0.07200000000000001,0.928,0.114,192.0,0.0,0.0,0.0,0.0,0.0,0.0,0.0,0.0,0.0,1676477935.670574,1
308,52.0,23920.72515734734,41487.698732340185,-40529.79237196355,-36644.65685423098,187500.0,8755.73709675516,-37616.64481361447,-14536.322896042217,-0.07200000000000001,0.928,0.114,192.0,0.0,0.0,0.0,0.0,0.0,0.0,0.0,0.0,0.0,1676477935.670604,1
309,53.0,23778.880987033965,41340.356032890806,-40558.827288010994,-36635.76085993777,187500.0,8776.21129467622,-37824.672499260014,-14831.857661230286,-0.07200000000000001,0.928,0.114,192.0,0.0,0.0,0.0,0.0,0.0,0.0,0.0,0.0,0.0,1676477935.670634,1
310,54.0,23923.362663193067,41430.61237700134,-40438.48549586362,-36581.960211033846,187500.0,8829.40844647985,-37419.055392629554,-14366.159065503964,-0.07200000000000001,0.928,0.114,192.0,0.0,0.0,0.0,0.0,0.0,0.0,0.0,0.0,0.0,1676477935.670664,1
311,55.0,24101.170790335036,41602.22907092918,-40398.47587328862,-36572.50542312925,187500.0,8821.36181847594,-37122.02306056298,-13956.250423938087,-0.07200000000000001,0.928,0.114,192.0,0.0,0.0,0.0,0.0,0.0,0.0,0.0,0.0,0.0,1676477935.670693,1
312,56.0,23976.31394580769,41521.2487007676,-40535.49206679965,-36631.737545935815,187500.0,8759.961576457212,-37511.52455944116,-14417.076339373154,-0.07200000000000001,0.928,0.114,192.0,0.0,0.0,0.0,0.0,0.0,0.0,0.0,0.0,0.0,1676477935.670722,1
313,57.0,23800.606882644523,41349.38613765075,-40584.330628434494,-36633.81625817016,187500.0,8753.703088009726,-37826.281824860795,-14843.882899747241,-0.088,1.006,0.098,192.0,253.0,64.0,31.0,112.0,3.0,16.0,0.0,0.0,0.0,1676477935.670752,1
314,58.0,23891.466723855345,41391.720341649096,-40471.27550497955,-36580.976734277814,187500.0,8802.653408366848,-37494.67134412186,-14480.95762502642,-0.088,1.006,0.098,192.0,0.0,0.0,0.0,0.0,0.0,0.0,0.0,0.0,0.0,1676477935.670781,1
315,59.0,24101.90839790206,41573.82000372648,-40394.251393586565,-36548.87962923999,187500.0,8811.482347426694,-37104.186368487644,-13970.332022944931,-0.088,1.006,0.098,192.0,0.0,0.0,0.0,0.0,0.0,0.0,0.0,0.0,0.0,1676477935.670811,1
316,60.0,24032.886211024073,41544.047480112014,-40515.80017993453,-36613.67733641593,187500.0,8735.061733134,-37402.67156394381,-14318.616905047526,-0.088,1.006,0.098,192.0,0.0,0.0,0.0,0.0,0.0,0.0,0.0,0.0,0.0,1676477935.67084,1
317,61.0,23827.160755057426,41358.237428455046,-40600.982678053704,-36637.83957217212,187500.0,8730.121997609378,-37803.684211216474,-14856.489283620034,-0.088,1.006,0.098,192.0,0.0,0.0,0.0,0.0,0.0,0.0,0.0,0.0,0.0,1676477935.670869,1
318,62.0,23873.87590096902,41361.120803489786,-40507.75355193062,-36585.603545380065,187500.0,8796.104347241444,-37561.54776353214,-14587.46368735596,-0.088,1.006,0.098,192.0,0.0,0.0,0.0,0.0,0.0,0.0,0.0,0.0,0.0,1676477935.670899,1
319,63.0,24088.05031633977,41544.58392197894,-40406.969536181634,-36552.85823975304,187500.0,8825.161615033343,-37103.04642952042,-14009.604037952906,-0.088,1.006,0.098,192.0,0.0,0.0,0.0,0.0,0.0,0.0,0.0,0.0,0.0,1676477935.731079,1
320,64.0,24058.121330514114,41560.02897739756,-40502.97027861718,-36606.77064737924,187500.0,8773.283216152575,-37287.8506526769,-14193.71535703127,-0.088,1.006,0.098,192.0,0.0,0.0,0.0,0.0,0.0,0.0,0.0,0.0,0.0,1676477935.731139,1
321,65.0,23837.75548192924,41373.01193154001,-40622.12742830842,-36651.96587466787,187500.0,8737.855701190914,-37782.025370839285,-14818.893649446209,-0.088,1.006,0.098,192.0,0.0,0.0,0.0,0.0,0.0,0.0,0.0,0.0,0.0,1676477935.731169,1
322,66.0,23840.99648487526,41337.472657856066,-40555.809802509524,-36610.570443936645,187500.0,8791.254018694643,-37657.235581545305,-14707.984293458974,-0.088,1.006,0.098,192.0,0.0,0.0,0.0,0.0,0.0,0.0,0.0,0.0,0.0,1676477935.731195,1
323,67.0,24053.96390604543,41520.22052052266,-40429.03070795903,-36556.74744328826,187500.0,8833.096484314978,-37143.99482536255,-14075.83225677398,-0.07,1.0,0.1,192.0,253.0,208.0,31.0,64.0,3.0,32.0,0.0,0.0,0.0,1676477935.731221,1
324,68.0,24083.177636048513,41586.5157945771,-40497.18117680326,-36600.57921416512,187500.0,8792.30455068404,-37180.69638975816,-14068.657346803826,-0.07,1.0,0.1,192.0,0.0,0.0,0.0,0.0,0.0,0.0,0.0,0.0,0.0,1676477935.731246,1
325,69.0,23869.360848589047,41410.58521396938,-40637.32661453803,-36650.51301127828,187500.0,8752.294928109042,-37692.57368952915,-14701.323473611294,-0.07,1.0,0.1,192.0,0.0,0.0,0.0,0.0,0.0,0.0,0.0,0.0,0.0,1676477935.731271,1
326,70.0,23822.91392361092,41336.153904933206,-40587.66103835834,-36607.2400340128,187500.0,8804.530954901094,-37678.60384924458,-14721.14947094315,-0.07,1.0,0.1,192.0,0.0,0.0,0.0,0.0,0.0,0.0,0.0,0.0,0.0,1676477935.731295,1
327,71.0,24021.017434718306,41487.65402885128,-40454.26582744907,-36557.708568299844,187500.0,8862.846656184991,-37166.95006691814,-14100.083899507988,-0.07,1.0,0.1,192.0,0.0,0.0,0.0,0.0,0.0,0.0,0.0,0.0,0.0,1676477935.73132,1
328,72.0,24121.689691745007,41610.052181488536,-40475.34352247042,-36575.47820514181,187500.0,8825.519242944627,-37076.023170473956,-13918.90065895327,-0.07,1.0,0.1,192.0,0.0,0.0,0.0,0.0,0.0,0.0,0.0,0.0,0.0,1676477935.731345,1
329,73.0,23925.329616705134,41463.670607050735,-40620.9874893412,-36632.519856991756,187500.0,8769.528123084083,-37592.013191224716,-14535.697047197467,-0.07,1.0,0.1,192.0,0.0,0.0,0.0,0.0,0.0,0.0,0.0,0.0,0.0,1676477935.73137,1
330,74.0,23822.89157186646,41342.74766954752,-40615.77953288311,-36611.28569975921,187500.0,8806.31909445752,-37714.61250956208,-14718.221392419506,-0.07,1.0,0.1,192.0,0.0,0.0,0.0,0.0,0.0,0.0,0.0,0.0,0.0,1676477935.731395,1
331,75.0,24003.963053698906,41480.568525858944,-40468.34742645591,-36552.36650137502,187500.0,8891.725110021247,-37216.235663442094,-14138.931231371313,-0.07,1.0,0.1,192.0,0.0,0.0,0.0,0.0,0.0,0.0,0.0,0.0,0.0,1676477935.73142,1
332,76.0,24150.903421748095,41636.561350412536,-40441.50298136508,-36548.14202167297,187500.0,8890.56281930957,-36972.89222155717,-13795.250808626512,-0.07,1.0,0.1,192.0,0.0,0.0,0.0,0.0,0.0,0.0,0.0,0.0,0.0,1676477935.731444,1
333,77.0,23978.236195830847,41517.09127629892,-40591.66200061584,-36612.582100937616,187500.0,8814.70099862826,-37454.572314569035,-14366.896673070989,-0.096,0.9520000000000001,0.078,192.0,253.0,0.0,29.0,192.0,2.0,112.0,0.0,0.0,0.0,1676477935.731469,1
334,78.0,23831.58640045958,41369.4133006827,-40606.41415195634,-36599.88631008701,187500.0,8803.815699078525,-37705.627108291046,-14711.739386527466,-0.096,0.9520000000000001,0.078,192.0,0.0,0.0,0.0,0.0,0.0,0.0,0.0,0.0,0.0,1676477935.790092,1
335,79.0,23976.51511150779,41463.46944135064,-40458.6020658734,-36535.80385873364,187500.0,8855.336470048007,-37257.65344591778,-14217.207040453797,-0.096,0.9520000000000001,0.078,192.0,0.0,0.0,0.0,0.0,0.0,0.0,0.0,0.0,0.0,1676477935.790134,1
336,80.0,24152.915078749073,41638.03656554658,-40396.79949245447,-36517.587187002566,187500.0,8867.51817077615,-36895.73399969745,-13743.81944463485,-0.096,0.9520000000000001,0.078,192.0,0.0,0.0,0.0,0.0,0.0,0.0,0.0,0.0,0.0,1676477935.790166,1
337,81.0,24023.27496090829,41565.169878622284,-40538.330738345474,-36584.32949594611,187500.0,8795.187925718776,-37313.912786711786,-14214.971866008267,-0.096,0.9520000000000001,0.078,192.0,0.0,0.0,0.0,0.0,0.0,0.0,0.0,0.0,0.0,1676477935.790196,1
338,82.0,23828.926542869394,41383.56195492291,-40609.74456188018,-36607.0388683127,187500.0,8794.584428618482,-37707.48230308083,-14702.686930023066,-0.096,0.9520000000000001,0.078,192.0,0.0,0.0,0.0,0.0,0.0,0.0,0.0,0.0,0.0,1676477935.790226,1
339,83.0,23918.333520690623,41421.939900152676,-40486.117063297876,-36561.77658579071,187500.0,8862.153752106877,-37351.798993563534,-14330.284515653197,-0.096,0.9520000000000001,0.078,192.0,0.0,0.0,0.0,0.0,0.0,0.0,0.0,0.0,0.0,1676477935.790256,1
340,84.0,24131.85973547217,41605.715943064206,-40398.81114945545,-36533.34516684356,187500.0,8872.726127234237,-36883.909926880595,-13755.956441874081,-0.096,0.9520000000000001,0.078,192.0,0.0,0.0,0.0,0.0,0.0,0.0,0.0,0.0,0.0,1676477935.790285,1
341,85.0,24062.94930731646,41581.240782885645,-40531.73697373116,-36586.87759481402,187500.0,8813.31519047203,-37201.39410512377,-14083.565960355516,-0.096,0.9520000000000001,0.078,192.0,0.0,0.0,0.0,0.0,0.0,0.0,0.0,0.0,0.0,1676477935.790315,1
342,86.0,23839.43186276339,41392.703818405134,-40624.00497484267,-36608.603490424575,187500.0,8789.510582627128,-37681.88955567951,-14674.501380264925,-0.096,0.9520000000000001,0.078,192.0,0.0,0.0,0.0,0.0,0.0,0.0,0.0,0.0,0.0,1676477935.790361,1
343,87.0,23869.606717778053,41384.456024701125,-40514.03439212256,-36558.7814520337,187500.0,8838.393847750885,-37415.702630961256,-14424.452415043404,-0.124,0.964,0.06,192.0,252.0,32.0,30.0,32.0,1.0,224.0,0.0,0.0,0.0,1676477935.790388,1
344,88.0,24094.308804787255,41577.17276539478,-40386.40593128275,-36521.09641088205,187500.0,8887.098298918998,-36855.70202537799,-13782.689128242628,-0.124,0.964,0.06,192.0,0.0,0.0,0.0,0.0,0.0,0.0,0.0,0.0,0.0,1676477935.790413,1
345,89.0,24094.04058385379,41607.43702738727,-40471.47667067965,-36561.843641024076,187500.0,8827.217975523232,-37018.981518624016,-13934.412769605253,-0.124,0.964,0.06,192.0,0.0,0.0,0.0,0.0,0.0,0.0,0.0,0.0,0.0,1676477935.790466,1
346,90.0,23875.32876435861,41422.72221120861,-40591.527890149104,-36594.410132695455,187500.0,8793.176268717798,-37576.67989452838,-14599.958312506476,-0.124,0.964,0.06,192.0,0.0,0.0,0.0,0.0,0.0,0.0,0.0,0.0,0.0,1676477935.790491,1
347,91.0,23862.275345596714,41379.60569615432,-40509.1617118313,-36551.2265624078,187500.0,8844.898205387379,-37450.03491044461,-14507.846773606156,-0.124,0.964,0.06,192.0,0.0,0.0,0.0,0.0,0.0,0.0,0.0,0.0,0.0,1676477935.790516,1
348,92.0,24072.42644696551,41530.18939854973,-40363.361282749334,-36506.45601826382,187500.0,8894.295560633607,-36860.32883648024,-13847.062152273913,-0.124,0.964,0.06,192.0,0.0,0.0,0.0,0.0,0.0,0.0,0.0,0.0,0.0,1676477935.790541,1
349,93.0,24122.427299312032,41620.110466493425,-40418.41362934275,-36556.99331247727,187500.0,8857.638699726904,-36874.902173865106,-13825.82799504137,-0.124,0.964,0.06,192.0,0.0,0.0,0.0,0.0,0.0,0.0,0.0,0.0,0.0,1676477935.850339,1
350,94.0,23918.713500346363,41468.09625245288,-40553.75344201964,-36599.21575775334,187500.0,8806.095577012966,-37473.32542816704,-14525.348189514661,-0.124,0.964,0.06,192.0,0.0,0.0,0.0,0.0,0.0,0.0,0.0,0.0,0.0,1676477935.850381,1
351,95.0,23855.502767026755,41372.27432397298,-40508.848787408926,-36569.733806816796,187500.0,8858.130438104921,-37502.96384131478,-14605.635655598124,-0.124,0.964,0.06,192.0,0.0,0.0,0.0,0.0,0.0,0.0,0.0,0.0,0.0,1676477935.850412,1
352,96.0,24056.19908049096,41518.38767747732,-40349.592608164865,-36524.22565510579,187500.0,8905.002046227699,-36903.132427112156,-13959.245557695098,-0.124,0.964,0.06,192.0,0.0,0.0,0.0,0.0,0.0,0.0,0.0,0.0,0.0,1676477935.85047,1
353,97.0,24157.854814273695,41635.5778736565,-40372.36903576482,-36553.305274642145,187500.0,8877.509400547671,-36776.308629072744,-13752.178997061133,-0.058,0.976,0.07,192.0,254.0,48.0,30.0,128.0,2.0,48.0,0.0,0.0,0.0,1676477935.8505,1
354,98.0,23958.231384543345,41485.35179917238,-40533.88274119887,-36624.115601076555,187500.0,8800.954675788245,-37409.08651460249,-14452.503854334815,-0.058,0.976,0.07,192.0,0.0,0.0,0.0,0.0,0.0,0.0,0.0,0.0,0.0,1676477935.85053,1
355,99.0,23831.38523475948,41349.34143416183,-40519.84584568094,-36620.96400510836,187500.0,8820.624210908916,-37611.034525756186,-14712.365235372215,-0.058,0.976,0.07,192.0,0.0,0.0,0.0,0.0,0.0,0.0,0.0,0.0,0.0,1676477935.85056,1
356,100.0,23990.70846923691,41457.18860115869,-40355.44876521215,-36580.17207147743,187500.0,8884.013758184166,-37083.95803975559,-14112.22089674722,-0.058,0.976,0.07,192.0,0.0,0.0,0.0,0.0,0.0,0.0,0.0,0.0,0.0,1676477935.850589,1
357,101.0,24122.762575478864,41599.010419727616,-40332.64998586774,-36608.06704855765,187500.0,8864.098353874488,-36847.85656307418,-13724.239316492,-0.058,0.976,0.07,192.0,0.0,0.0,0.0,0.0,0.0,0.0,0.0,0.0,0.0,1676477935.850618,1
358,102.0,23931.006959796785,41459.80375525996,-40508.424104264275,-36705.1630264715,187500.0,8762.35321311393,-37457.18746867031,-14359.632356123015,-0.058,0.976,0.07,192.0,0.0,0.0,0.0,0.0,0.0,0.0,0.0,0.0,0.0,1676477935.850648,1
359,103.0,23733.84222195652,41266.48351746601,-40568.1256137044,-36729.7722971168,187500.0,8752.764314742602,-37832.719127263925,-14785.075460085329,-0.058,0.976,0.07,192.0,0.0,0.0,0.0,0.0,0.0,0.0,0.0,0.0,0.0,1676477935.850677,1
360,104.0,23843.388121531978,41326.60971005079,-40464.12294675386,-36699.753904313315,187500.0,8791.49988788365,-37412.3275175485,-14269.018384101199,-0.058,0.976,0.07,192.0,0.0,0.0,0.0,0.0,0.0,0.0,0.0,0.0,0.0,1676477935.850706,1
361,105.0,24007.13700141156,41479.316828169445,-40423.196902656186,-36708.62754686207,187500.0,8775.54074234256,-37058.409995843176,-13726.407435704165,-0.058,0.976,0.07,192.0,0.0,0.0,0.0,0.0,0.0,0.0,0.0,0.0,0.0,1676477935.850735,1
362,106.0,23851.09947336906,41369.12272800478,-40610.213948513745,-36801.29787937378,187500.0,8668.498238146096,-37566.845126968044,-14249.505311191717,-0.022,0.984,0.052000000000000005,192.0,255.0,80.0,30.0,192.0,1.0,160.0,0.0,0.0,0.0,1676477935.850764,1
363,107.0,23618.686034522776,41165.25246682793,-40725.88422606996,-36840.72635659294,187500.0,8611.255420596055,-38054.7837084274,-14850.431960872647,-0.022,0.984,0.052000000000000005,192.0,0.0,0.0,0.0,0.0,0.0,0.0,0.0,0.0,0.0,1676477935.850809,1
364,108.0,23671.100875270473,41174.01435065441,-40633.72798368073,-36805.70117303147,187500.0,8653.455514127674,-37717.585291574636,-14473.782715056268,-0.022,0.984,0.052000000000000005,192.0,0.0,0.0,0.0,0.0,0.0,0.0,0.0,0.0,0.0,1676477935.910637,1
365,109.0,23849.557203001645,41322.49698907101,-40580.709645832736,-36816.161789436555,187500.0,8659.468133386152,-37257.56403893996,-13818.675436815673,-0.022,0.984,0.052000000000000005,192.0,0.0,0.0,0.0,0.0,0.0,0.0,0.0,0.0,0.0,1676477935.910679,1
366,110.0,23760.194928669327,41274.30662802537,-40746.313720502105,-36909.39091555964,187500.0,8540.69096335065,-37632.17927601091,-14187.635682539427,-0.022,0.984,0.052000000000000005,192.0,0.0,0.0,0.0,0.0,0.0,0.0,0.0,0.0,0.0,1676477935.91071,1
367,111.0,23512.023509982053,41052.174991628526,-40878.36782674406,-36961.44812839605,187500.0,8457.542473976908,-38192.47045427209,-14921.801080918442,-0.022,0.984,0.052000000000000005,192.0,0.0,0.0,0.0,0.0,0.0,0.0,0.0,0.0,0.0,1676477935.91074,1
368,112.0,23529.480222401646,41019.653203446054,-40790.570174523615,-36937.4200031066,187500.0,8494.06522441688,-37955.340797345736,-14704.139793412662,-0.022,0.984,0.052000000000000005,192.0,0.0,0.0,0.0,0.0,0.0,0.0,0.0,0.0,0.0,1676477935.910771,1
369,113.0,23736.904410946896,41181.34572283575,-40681.516013326174,-36919.270386608885,187500.0,8520.395579385231,-37410.181750080796,-13970.577892133939,-0.022,0.984,0.052000000000000005,192.0,0.0,0.0,0.0,0.0,0.0,0.0,0.0,0.0,0.0,1676477935.9108,1
370,114.0,23719.023015382652,41202.266955645915,-40783.797595953656,-36987.286744986384,187500.0,8448.110037816768,-37622.09863926156,-14132.650391179372,-0.022,0.984,0.052000000000000005,192.0,0.0,0.0,0.0,0.0,0.0,0.0,0.0,0.0,0.0,1676477935.91083,1
371,115.0,23470.35985831736,40995.334505478684,-40924.166551132985,-37049.49164980551,187500.0,8382.217095162523,-38243.96887349711,-14947.81851146442,-0.022,0.984,0.052000000000000005,192.0,0.0,0.0,0.0,0.0,0.0,0.0,0.0,0.0,0.0,1676477935.910859,1
372,116.0,23449.125701084817,40936.30354837222,-40834.267834933744,-36993.50052994496,187500.0,8417.488147912998,-38128.47740989654,-14878.930435053164,0.016,1.018,0.06,192.0,0.0,128.0,31.0,208.0,1.0,224.0,0.0,0.0,0.0,1676477935.910889,1
373,117.0,23672.196110748784,41108.00964927788,-40677.6491615354,-36936.682395539574,187500.0,8490.48894530403,-37513.75973388669,-14096.149992483854,0.016,1.018,0.06,192.0,0.0,0.0,0.0,0.0,0.0,0.0,0.0,0.0,0.0,1676477935.910918,1
374,118.0,23745.04044592863,41203.85392950224,-40730.44398193884,-36966.03023600939,187500.0,8454.524988475441,-37547.130888358464,-14014.119090332877,0.016,1.018,0.06,192.0,0.0,0.0,0.0,0.0,0.0,0.0,0.0,0.0,0.0,1676477935.910947,1
375,119.0,23538.823251583966,41040.12740136712,-40882.7487686573,-37011.627794698215,187500.0,8400.076138982313,-38195.197367095636,-14824.749806493499,0.016,1.018,0.06,192.0,0.0,0.0,0.0,0.0,0.0,0.0,0.0,0.0,0.0,1676477935.910977,1
376,120.0,23489.962338204663,40963.70678707442,-40824.58952958459,-36952.70859631403,187500.0,8474.641558485218,-38216.096248161346,-14933.468691524113,0.016,1.018,0.06,192.0,0.0,0.0,0.0,0.0,0.0,0.0,0.0,0.0,0.0,1676477935.911006,1
377,121.0,23708.137715832916,41133.267120512384,-40653.95631241278,-36877.740845410925,187500.0,8553.766733857005,-37596.50589186024,-14161.70765897127,0.016,1.018,0.06,192.0,0.0,0.0,0.0,0.0,0.0,0.0,0.0,0.0,0.0,1676477935.911036,1
378,122.0,23858.654362994956,41299.452340537595,-40645.440297775305,-36863.3016184928,187500.0,8569.591768931361,-37432.913474191846,-13818.161346693201,0.016,1.018,0.06,192.0,0.0,0.0,0.0,0.0,0.0,0.0,0.0,0.0,0.0,1676477935.911065,1
379,123.0,23686.121247544437,41184.11733914821,-40782.63530524198,-36894.41524677459,187500.0,8532.130245224267,-38023.357155723235,-14540.122692599618,0.016,1.018,0.06,192.0,0.0,0.0,0.0,0.0,0.0,0.0,0.0,0.0,0.0,1676477935.972314,1
380,124.0,23596.62486274539,41089.48005312444,-40740.56932217709,-36836.09954549069,187500.0,8615.703417742661,-38167.6600179267,-14807.829535940831,0.016,1.018,0.06,192.0,0.0,0.0,0.0,0.0,0.0,0.0,0.0,0.0,0.0,1676477935.972356,1
381,125.0,23807.33475772557,41244.75762185545,-40551.071232685,-36739.540009443765,187500.0,8727.305677808008,-37569.39322583595,-14078.134486452876,0.016,1.018,0.06,192.0,0.0,0.0,0.0,0.0,0.0,0.0,0.0,0.0,0.0,1676477935.972388,1
382,126.0,24008.478106078877,41444.649272519266,-40502.746761172624,-36708.26991895079,187500.0,8747.01991641759,-37257.921666851245,-13544.173663160047,0.044,0.9560000000000001,0.076,192.0,1.0,96.0,29.0,224.0,2.0,96.0,0.0,0.0,0.0,1676477935.972418,1
383,127.0,23882.213101650847,41376.72232111959,-40647.85428617648,-36737.997739076345,187500.0,8706.652665931304,-37802.09723736015,-14181.220731880752,0.044,0.9560000000000001,0.076,192.0,0.0,0.0,0.0,0.0,0.0,0.0,0.0,0.0,0.0,1676477935.972448,1
384,128.0,23740.212469126283,41254.54768592688,-40661.13122238293,-36694.27772692177,187500.0,8768.678756794781,-38095.77680775843,-14626.959219808487,0.044,0.9560000000000001,0.076,192.0,0.0,0.0,0.0,0.0,0.0,0.0,0.0,0.0,0.0,1676477935.972494,1
385,129.0,23906.174171706938,41361.031396511964,-40489.78274938855,-36614.07966781613,187500.0,8894.295560633607,-37585.33001963258,-14032.939259164246,0.044,0.9560000000000001,0.076,192.0,0.0,0.0,0.0,0.0,0.0,0.0,0.0,0.0,0.0,1676477935.972521,1
386,130.0,24135.883049474127,41561.548896020526,-40408.55651003796,-36600.64626939849,187500.0,8980.39448027545,-37164.04434013896,-13367.840751152129,0.044,0.9560000000000001,0.076,192.0,0.0,0.0,0.0,0.0,0.0,0.0,0.0,0.0,0.0,1676477935.972547,1
387,131.0,24018.84931550614,41518.11945654386,-40551.9205989743,-36654.2010491134,187500.0,8895.144926922909,-37645.05388081716,-13882.601425957851,0.044,0.9560000000000001,0.076,192.0,0.0,0.0,0.0,0.0,0.0,0.0,0.0,0.0,0.0,1676477935.972572,1
388,132.0,23788.42518191638,41334.254006654504,-40618.729963151214,-36650.28949383372,187500.0,8914.501537621205,-38107.69028755311,-14524.96820985892,0.044,0.9560000000000001,0.076,192.0,0.0,0.0,0.0,0.0,0.0,0.0,0.0,0.0,0.0,1676477935.972597,1
389,133.0,23871.976002690317,41364.04888201343,-40469.04033053402,-36576.52873713121,187500.0,8945.481055436261,-37715.17130317346,-14093.199562215754,0.044,0.9560000000000001,0.076,192.0,0.0,0.0,0.0,0.0,0.0,0.0,0.0,0.0,0.0,1676477935.972621,1
390,134.0,24102.310729302255,41556.430346540255,-40374.49245148808,-36551.561838574635,187500.0,8930.281869206652,-37191.425227096704,-13332.502643168289,0.044,0.9560000000000001,0.076,192.0,0.0,0.0,0.0,0.0,0.0,0.0,0.0,0.0,0.0,1676477935.972647,1
391,135.0,24051.393455433066,41545.723860946164,-40522.326889315475,-36622.57333070914,187500.0,8897.581267068537,-37549.38841454845,-13682.642720060674,0.044,0.9560000000000001,0.076,192.0,0.0,0.0,0.0,0.0,0.0,0.0,0.0,0.0,0.0,1676477935.972671,1
392,136.0,23818.711795653322,41338.14321018973,-40642.13223959592,-36655.095118891615,187500.0,8856.543464248594,-38125.03524125043,-14471.368726655093,0.028,0.978,0.11,192.0,0.0,224.0,30.0,144.0,3.0,112.0,0.0,0.0,0.0,1676477935.972696,1
393,137.0,23838.046054607163,41319.52420705846,-40538.71071800122,-36602.05442929917,187500.0,8885.108993662476,-37868.79484281479,-14221.76679632268,0.028,0.978,0.11,192.0,0.0,0.0,0.0,0.0,0.0,0.0,0.0,0.0,0.0,1676477935.972721,1
394,138.0,24049.00181877635,41505.602479648885,-40415.73142000812,-36575.85818479755,187500.0,8951.404267716916,-37267.979951856134,-13410.644341784042,0.028,0.978,0.11,192.0,0.0,0.0,0.0,0.0,0.0,0.0,0.0,0.0,0.0,1676477936.03129,1
395,139.0,24036.90952502603,41540.35944227689,-40535.603825521925,-36641.50525826279,187500.0,8860.924406161834,-37461.25548616117,-13542.005543947882,0.028,0.978,0.11,192.0,0.0,0.0,0.0,0.0,0.0,0.0,0.0,0.0,0.0,1676477936.031337,1
396,140.0,23805.837190847065,41348.89439927273,-40700.96203100229,-36683.325372138665,187500.0,8771.78564927407,-38112.58531958882,-14404.335845033627,0.028,0.978,0.11,192.0,0.0,0.0,0.0,0.0,0.0,0.0,0.0,0.0,0.0,1676477936.031369,1
397,141.0,23775.394114898936,41288.36587528776,-40625.34607950999,-36632.18458082493,187500.0,8835.376362249419,-37988.64489658414,-14353.329164186618,0.028,0.978,0.11,192.0,0.0,0.0,0.0,0.0,0.0,0.0,0.0,0.0,0.0,1676477936.031399,1
398,142.0,24004.79006824375,41472.96893274414,-40463.72061535366,-36576.34992317556,187500.0,8911.640514330926,-37312.34816459992,-13512.702406966973,0.028,0.978,0.11,192.0,0.0,0.0,0.0,0.0,0.0,0.0,0.0,0.0,0.0,1676477936.031429,1
399,143.0,24079.04256332428,41579.67616077378,-40524.62911899437,-36606.5918334236,187500.0,8868.23342659872,-37312.01288843309,-13392.338263075146,0.028,0.978,0.11,192.0,0.0,0.0,0.0,0.0,0.0,0.0,0.0,0.0,0.0,1676477936.031458,1
400,144.0,23859.86135719554,41406.897176134255,-40695.46350186628,-36654.42456655795,187500.0,8799.099480998455,-37996.155082721125,-14269.353660268029,0.028,0.978,0.11,192.0,0.0,0.0,0.0,0.0,0.0,0.0,0.0,0.0,0.0,1676477936.031488,1
401,145.0,23792.157923240415,41319.52420705846,-40626.910701621855,-36592.95726930586,187500.0,8864.791257952602,-38018.79739985435,-14412.717749204368,0.028,0.978,0.11,192.0,0.0,0.0,0.0,0.0,0.0,0.0,0.0,0.0,0.0,1676477936.031517,1
402,146.0,24028.438213877467,41491.38677017531,-40434.14925743929,-36519.665899236905,187500.0,8948.319726982085,-37312.14699889982,-13631.70309444703,-0.066,0.97,0.10200000000000001,192.0,253.0,240.0,30.0,80.0,3.0,48.0,0.0,0.0,0.0,1676477936.031546,1
403,147.0,24168.78481731234,41641.59049291498,-40432.204655671674,-36529.83594296407,187500.0,8951.694840394835,-37108.34379295633,-13321.393826174,-0.066,0.97,0.10200000000000001,192.0,0.0,0.0,0.0,0.0,0.0,0.0,0.0,0.0,0.0,1676477936.031575,1
404,148.0,23966.4568265029,41506.54125291601,-40593.65130587236,-36581.3343621891,187500.0,8897.625970557448,-37787.121568575094,-14146.776693675125,-0.066,0.97,0.10200000000000001,192.0,0.0,0.0,0.0,0.0,0.0,0.0,0.0,0.0,0.0,1676477936.031602,1
405,149.0,23863.750560730765,41392.212080027115,-40543.873970970395,-36517.05074513564,187500.0,8943.447046690828,-37950.62457926566,-14468.194778942441,-0.066,0.97,0.10200000000000001,192.0,0.0,0.0,0.0,0.0,0.0,0.0,0.0,0.0,0.0,1676477936.031631,1
406,150.0,24077.656755168053,41542.88518940034,-40324.67041309719,-36418.5466073211,187500.0,9034.128073946009,-37258.16753604025,-13766.01472687897,-0.066,0.97,0.10200000000000001,192.0,0.0,0.0,0.0,0.0,0.0,0.0,0.0,0.0,0.0,1676477936.031679,1
407,151.0,24280.454132611052,41738.5523603621,-40252.250761062,-36394.5408337761,187500.0,9041.12416996052,-36860.552353924795,-13264.329822579602,-0.066,0.97,0.10200000000000001,192.0,0.0,0.0,0.0,0.0,0.0,0.0,0.0,0.0,0.0,1676477936.031706,1
408,152.0,24139.973418709447,41654.55450469905,-40405.20374836967,-36449.36966292497,187500.0,8980.39448027545,-37472.07373047754,-13983.139572517823,-0.066,0.97,0.10200000000000001,192.0,0.0,0.0,0.0,0.0,0.0,0.0,0.0,0.0,0.0,1676477936.031731,1
409,153.0,23989.255605847313,41503.61317439237,-40420.46998983264,-36421.07235444455,187500.0,9029.054227954653,-37843.269150646825,-14502.325892725694,-0.066,0.97,0.10200000000000001,192.0,0.0,0.0,0.0,0.0,0.0,0.0,0.0,0.0,0.0,1676477936.090112,1
410,154.0,24155.999619483904,41607.66054483182,-40216.6444321447,-36328.17850448829,187500.0,9135.47088330637,-37251.26084700356,-13897.778260443005,-0.066,0.97,0.10200000000000001,192.0,0.0,0.0,0.0,0.0,0.0,0.0,0.0,0.0,0.0,1676477936.090157,1
411,155.0,24393.93393921065,41832.13911439647,-40092.4134364621,-36283.49736732213,187500.0,9173.602959347125,-36701.49734038083,-13203.153098005427,-0.066,0.97,0.10200000000000001,192.0,0.0,0.0,0.0,0.0,0.0,0.0,0.0,0.0,0.0,1676477936.090184,1
412,156.0,24302.22473171052,41803.93121289387,-40223.819342114846,-36330.503085911645,187500.0,9107.397092270505,-37188.69831427316,-13737.315086998355,-0.046,0.994,0.122,192.0,254.0,144.0,31.0,16.0,3.0,208.0,0.0,0.0,0.0,1676477936.09021,1
413,157.0,24101.90839790206,41635.153190511846,-40282.38091258775,-36320.087172995474,187500.0,9122.66333373348,-37709.046925192706,-14415.019978883265,-0.046,0.994,0.122,192.0,0.0,0.0,0.0,0.0,0.0,0.0,0.0,0.0,0.0,1676477936.090235,1
414,158.0,24196.45627694801,41686.875127181425,-40120.219006564505,-36242.59367496892,187500.0,9218.217041279917,-37263.733120409626,-13962.933595530225,-0.046,0.994,0.122,192.0,0.0,0.0,0.0,0.0,0.0,0.0,0.0,0.0,0.0,1676477936.09026,1
415,159.0,24450.26033523802,41907.35273448858,-40002.20179584048,-36205.02039253955,187500.0,9288.669739803045,-36625.523760977245,-13163.03171670815,-0.046,0.994,0.122,192.0,0.0,0.0,0.0,0.0,0.0,0.0,0.0,0.0,0.0,1676477936.090285,1
416,160.0,24407.657910306207,41922.618975951555,-40149.56684703432,-36264.63249500185,187500.0,9199.776852104289,-36978.837785582284,-13508.43322377601,-0.046,0.994,0.122,192.0,0.0,0.0,0.0,0.0,0.0,0.0,0.0,0.0,0.0,1676477936.09031,1
417,161.0,24162.995715498415,41726.795342778605,-40283.90083121072,-36290.42640810328,187500.0,9149.977165457865,-37629.11708702053,-14326.104739440054,-0.046,0.994,0.122,192.0,0.0,0.0,0.0,0.0,0.0,0.0,0.0,0.0,0.0,1676477936.090334,1
418,162.0,24180.653593618106,41707.61754603595,-40175.27135315792,-36233.608273697886,187500.0,9228.364733262628,-37346.74749931663,-14069.663175304315,-0.046,0.994,0.122,192.0,0.0,0.0,0.0,0.0,0.0,0.0,0.0,0.0,0.0,1676477936.090359,1
419,163.0,24419.057299978413,41895.86393783855,-40044.64775856111,-36202.89697681629,187500.0,9281.31601587725,-36650.71417697837,-13221.325066247591,-0.046,0.994,0.122,192.0,0.0,0.0,0.0,0.0,0.0,0.0,0.0,0.0,0.0,1676477936.090384,1
420,164.0,24403.92516898217,41923.803618407685,-40179.54053634889,-36278.37881784187,187500.0,9176.776907059779,-36852.46102243198,-13362.78925690523,-0.046,0.994,0.122,192.0,0.0,0.0,0.0,0.0,0.0,0.0,0.0,0.0,0.0,1676477936.090409,1
421,165.0,24121.980264422928,41688.48445278221,-40377.39817826726,-36358.50982171414,187500.0,9096.042406087208,-37623.886778817985,-14296.891009436968,-0.046,0.994,0.122,192.0,0.0,0.0,0.0,0.0,0.0,0.0,0.0,0.0,0.0,1676477936.090459,1
422,166.0,24055.01443803483,41582.87246023089,-40333.74522134605,-36343.06476629552,187500.0,9129.502967536804,-37547.93555115885,-14286.430393031884,-0.07,0.934,0.11800000000000001,192.0,253.0,208.0,29.0,48.0,3.0,176.0,0.0,0.0,0.0,1676477936.090484,1
423,167.0,24261.18692889058,41731.489209114225,-40198.740684836,-36325.608053875934,187500.0,9168.439706377949,-36848.90709506358,-13470.077630290703,-0.07,0.934,0.11800000000000001,192.0,0.0,0.0,0.0,0.0,0.0,0.0,0.0,0.0,0.0,1676477936.090509,1
424,168.0,24291.741763560985,41789.17906155337,-40306.945479744136,-36420.73707827772,187500.0,9060.816056825644,-36887.01681935988,-13402.687120757953,-0.07,0.934,0.11800000000000001,192.0,0.0,0.0,0.0,0.0,0.0,0.0,0.0,0.0,0.0,1676477936.150379,1
425,169.0,23975.621041729577,41538.057212597996,-40544.566875048506,-36536.04972792265,187500.0,8912.28871492013,-37702.609622789576,-14384.398088979495,-0.07,0.934,0.11800000000000001,192.0,0.0,0.0,0.0,0.0,0.0,0.0,0.0,0.0,0.0,1676477936.150447,1
426,170.0,23820.030548576182,41364.1606407357,-40544.142191903855,-36541.637664036476,187500.0,8884.080813417533,-37822.97376668141,-14609.971894022454,-0.07,0.934,0.11800000000000001,192.0,0.0,0.0,0.0,0.0,0.0,0.0,0.0,0.0,0.0,1676477936.15048,1
427,171.0,23991.5131320373,41473.97476124463,-40399.72757097812,-36535.13330639998,187500.0,8934.685162864347,-37146.81114516391,-13846.525710406984,-0.07,0.934,0.11800000000000001,192.0,0.0,0.0,0.0,0.0,0.0,0.0,0.0,0.0,0.0,1676477936.150526,1
428,172.0,24087.62563319512,41583.94534396474,-40444.67692907774,-36611.28569975921,187500.0,8848.94387113379,-36975.84265182527,-13546.92292772805,-0.07,0.934,0.11800000000000001,192.0,0.0,0.0,0.0,0.0,0.0,0.0,0.0,0.0,0.0,1676477936.150553,1
429,173.0,23829.95472311434,41389.17224278119,-40673.558792300086,-36728.74411687185,187500.0,8695.990883826124,-37750.37530069057,-14463.38915388455,-0.07,0.934,0.11800000000000001,192.0,0.0,0.0,0.0,0.0,0.0,0.0,0.0,0.0,0.0,1676477936.150578,1
430,174.0,23637.461499865236,41190.71110376252,-40709.23217645075,-36746.44669848045,187500.0,8681.842229585915,-38045.038347844886,-14891.514467181501,-0.07,0.934,0.11800000000000001,192.0,0.0,0.0,0.0,0.0,0.0,0.0,0.0,0.0,0.0,1676477936.150603,1
431,175.0,23773.404809642412,41263.73425289801,-40564.25876191363,-36723.379698202574,187500.0,8732.781855199559,-37413.959194893745,-14197.872781499957,-0.028,0.9520000000000001,0.126,192.0,255.0,32.0,29.0,192.0,3.0,240.0,0.0,0.0,0.0,1676477936.150628,1
432,176.0,23937.712483133375,41420.41998152971,-40554.04401469756,-36758.04725385276,187500.0,8717.627372458861,-37062.90269647869,-13665.051897174348,-0.028,0.9520000000000001,0.126,192.0,0.0,0.0,0.0,0.0,0.0,0.0,0.0,0.0,0.0,1676477936.150653,1
433,177.0,23748.907297719397,41293.68559046812,-40765.37975852248,-36856.41728120056,187500.0,8594.201039576656,-37735.01965224977,-14415.779938194746,-0.028,0.9520000000000001,0.126,192.0,0.0,0.0,0.0,0.0,0.0,0.0,0.0,0.0,0.0,1676477936.150678,1
434,178.0,23529.390815423827,41085.30027691129,-40832.256177932766,-36859.68063589104,187500.0,8575.090298067367,-38172.21977379558,-14990.77856430752,-0.028,0.9520000000000001,0.126,192.0,0.0,0.0,0.0,0.0,0.0,0.0,0.0,0.0,0.0,1676477936.150703,1
435,179.0,23654.44882565127,41145.69469042953,-40676.19629814581,-36798.99564969488,187500.0,8651.823836782436,-37625.853732330055,-14387.840257625612,-0.028,0.9520000000000001,0.126,192.0,0.0,0.0,0.0,0.0,0.0,0.0,0.0,0.0,0.0,1676477936.150728,1
436,180.0,23864.82344446462,41336.82445726686,-40609.789265369094,-36799.889719473096,187500.0,8680.18820049622,-37117.44095294964,-13675.445458346065,-0.028,0.9520000000000001,0.126,192.0,0.0,0.0,0.0,0.0,0.0,0.0,0.0,0.0,0.0,1676477936.150753,1
437,181.0,23752.729446021254,41285.86247990876,-40786.01041865473,-36875.77389189886,187500.0,8589.84244940787,-37648.69721516338,-14244.543223922637,-0.028,0.9520000000000001,0.126,192.0,0.0,0.0,0.0,0.0,0.0,0.0,0.0,0.0,0.0,1676477936.150778,1
438,182.0,23533.65999861479,41090.1506054581,-40877.406701732485,-36874.879822120645,187500.0,8521.468463119087,-38208.22843411308,-14985.615311338344,-0.028,0.9520000000000001,0.126,192.0,0.0,0.0,0.0,0.0,0.0,0.0,0.0,0.0,0.0,1676477936.150802,1
439,183.0,23626.48679333768,41118.582024405245,-40729.30404297162,-36797.09575141618,187500.0,8611.166013618233,-37776.05745506972,-14541.68731471149,-0.028,0.9520000000000001,0.126,192.0,0.0,0.0,0.0,0.0,0.0,0.0,0.0,0.0,0.0,1676477936.211303,1
440,184.0,23874.34528760258,41326.11797167277,-40613.8349311155,-36768.66433246903,187500.0,8641.698496544182,-37136.32817701437,-13716.930296055114,-0.028,0.9520000000000001,0.126,192.0,0.0,0.0,0.0,0.0,0.0,0.0,0.0,0.0,0.0,1676477936.211345,1
441,185.0,23828.501859724744,41337.78558227844,-40752.70631941633,-36833.7973158118,187500.0,8566.820152618904,-37492.07854176504,-14058.621413543393,-0.05,0.9520000000000001,0.12,192.0,254.0,112.0,29.0,192.0,3.0,192.0,0.0,0.0,0.0,1676477936.211376,1
442,186.0,23588.466476019203,41146.968739863485,-40860.57583815764,-36844.45909791697,187500.0,8544.490759908052,-38156.819421865875,-14910.04406333495,-0.05,0.9520000000000001,0.12,192.0,0.0,0.0,0.0,0.0,0.0,0.0,0.0,0.0,0.0,1676477936.211407,1
443,187.0,23609.275950107094,41126.89687334262,-40730.62279589448,-36783.438835553985,187500.0,8621.045484667478,-37880.462453420456,-14671.52859825237,-0.05,0.9520000000000001,0.12,192.0,0.0,0.0,0.0,0.0,0.0,0.0,0.0,0.0,0.0,1676477936.211436,1
444,188.0,23864.219947364327,41332.19764616462,-40570.2266776832,-36747.4748787254,187500.0,8695.745014637116,-37162.07738662689,-13797.217762138578,-0.05,0.9520000000000001,0.12,192.0,0.0,0.0,0.0,0.0,0.0,0.0,0.0,0.0,0.0,1676477936.211466,1
445,189.0,23892.87488375603,41405.95840286713,-40657.957274670276,-36800.76143750685,187500.0,8626.901641714769,-37321.19945540422,-13894.537257496984,-0.05,0.9520000000000001,0.12,192.0,0.0,0.0,0.0,0.0,0.0,0.0,0.0,0.0,0.0,1676477936.211496,1
446,190.0,23651.990133761185,41217.644955831165,-40803.578889796605,-36840.25696995938,187500.0,8564.115591539812,-38055.27544680541,-14814.6468179997,-0.05,0.9520000000000001,0.12,192.0,0.0,0.0,0.0,0.0,0.0,0.0,0.0,0.0,0.0,1676477936.211525,1
447,191.0,23614.10392690944,41150.76853642089,-40703.66659208138,-36783.304725087255,187500.0,8640.402095365775,-37944.99193966293,-14772.178503534617,-0.05,0.9520000000000001,0.12,192.0,0.0,0.0,0.0,0.0,0.0,0.0,0.0,0.0,0.0,1676477936.211554,1
448,192.0,23859.928412428908,41342.367689891784,-40509.38522927585,-36717.63529987756,187500.0,8721.047189360523,-37191.000543952054,-13876.544103210463,-0.05,0.9520000000000001,0.12,192.0,0.0,0.0,0.0,0.0,0.0,0.0,0.0,0.0,0.0,1676477936.211599,1
449,193.0,23952.151710051505,41461.61424656084,-40552.255875141134,-36753.241628794865,187500.0,8674.399098682297,-37153.606075478325,-13716.57266814383,-0.05,0.9520000000000001,0.12,192.0,0.0,0.0,0.0,0.0,0.0,0.0,0.0,0.0,0.0,1676477936.211626,1
450,194.0,23730.64592249941,41307.208395863585,-40710.19330146233,-36794.771169992826,187500.0,8612.685932241195,-37906.85986362217,-14632.99419081142,-0.05,0.9520000000000001,0.12,192.0,0.0,0.0,0.0,0.0,0.0,0.0,0.0,0.0,0.0,1676477936.211652,1
451,195.0,23644.032912735096,41205.01622021392,-40652.436393789816,-36742.24457052285,187500.0,8678.467116173162,-37982.47581511448,-14805.54965800639,-0.016,0.9440000000000001,0.10400000000000001,192.0,255.0,128.0,29.0,128.0,3.0,64.0,0.0,0.0,0.0,1676477936.211677,1
452,196.0,23862.58827001909,41362.19368722364,-40469.8002898455,-36672.32831386665,187500.0,8775.518390598107,-37255.15005053879,-13963.939424030714,-0.016,0.9440000000000001,0.10400000000000001,192.0,0.0,0.0,0.0,0.0,0.0,0.0,0.0,0.0,0.0,1676477936.211702,1
453,197.0,24010.400356102033,41520.51109320058,-40481.89258359582,-36693.45071237692,187500.0,8754.105419409922,-37027.69869896158,-13567.397125649111,-0.016,0.9440000000000001,0.10400000000000001,192.0,0.0,0.0,0.0,0.0,0.0,0.0,0.0,0.0,0.0,1676477936.211726,1
454,198.0,23818.108298553027,41392.14502479375,-40662.71819623926,-36749.84416363766,187500.0,8680.657587129783,-37755.42679493747,-14425.726464477357,-0.016,0.9440000000000001,0.10400000000000001,192.0,0.0,0.0,0.0,0.0,0.0,0.0,0.0,0.0,0.0,1676477936.272268,1
455,199.0,23685.20482602177,41254.52533418242,-40650.93882691131,-36710.05805850722,187500.0,8728.535023753051,-38016.2716527309,-14816.524364533945,-0.016,0.9440000000000001,0.10400000000000001,192.0,0.0,0.0,0.0,0.0,0.0,0.0,0.0,0.0,0.0,1676477936.272309,1
456,200.0,23866.365714832034,41381.930277577674,-40456.56805712796,-36625.25554004378,187500.0,8819.059588797045,-37353.16244997531,-14066.444524102752,-0.016,0.9440000000000001,0.10400000000000001,192.0,0.0,0.0,0.0,0.0,0.0,0.0,0.0,0.0,0.0,1676477936.272337,1
457,201.0,24065.206833506447,41576.56926829449,-40402.588594268396,-36622.081592331124,187500.0,8810.07418752601,-36944.93018924358,-13469.742354123873,-0.016,0.9440000000000001,0.10400000000000001,192.0,0.0,0.0,0.0,0.0,0.0,0.0,0.0,0.0,0.0,1676477936.272363,1
458,202.0,23928.861192329074,41494.58306963242,-40567.008026481635,-36674.33997086763,187500.0,8737.587480257449,-37567.15805139042,-14194.877647742946,-0.016,0.9440000000000001,0.10400000000000001,192.0,0.0,0.0,0.0,0.0,0.0,0.0,0.0,0.0,0.0,1676477936.272388,1
459,203.0,23758.42914085736,41330.6553757972,-40585.20234646826,-36633.45863025888,187500.0,8772.009166718623,-37978.38544587916,-14774.838361124797,-0.016,0.9440000000000001,0.10400000000000001,192.0,0.0,0.0,0.0,0.0,0.0,0.0,0.0,0.0,0.0,1676477936.272413,1
460,204.0,23908.409346152468,41420.24116757407,-40394.07257963093,-36542.5764373036,187500.0,8868.345185320995,-37401.9786598657,-14155.069190868044,-0.016,0.9440000000000001,0.10400000000000001,192.0,0.0,0.0,0.0,0.0,0.0,0.0,0.0,0.0,0.0,1676477936.272438,1
461,205.0,24149.07057870276,41635.73433586769,-40299.30118314042,-36519.04005039216,187500.0,8910.947610252812,-36850.31525496426,-13409.07971967217,0.002,0.998,0.108,192.0,0.0,16.0,31.0,48.0,3.0,96.0,0.0,0.0,0.0,1676477936.272463,1
462,206.0,24058.009571791838,41598.47397786069,-40461.3513304414,-36587.65990586995,187500.0,8826.435664467295,-37350.68140634077,-13952.42827563623,0.002,0.998,0.108,192.0,0.0,0.0,0.0,0.0,0.0,0.0,0.0,0.0,0.0,1676477936.272487,1
463,207.0,23851.457101280346,41414.2732518045,-40526.26079633961,-36573.31008592965,187500.0,8831.263641269641,-37908.51389271187,-14704.072738179297,0.002,0.998,0.108,192.0,0.0,0.0,0.0,0.0,0.0,0.0,0.0,0.0,0.0,1676477936.272512,1
464,208.0,23953.492814718822,41458.64146454829,-40346.46336394112,-36470.58146841305,187500.0,8926.43736916034,-37464.563544340555,-14263.609261943015,0.002,0.998,0.108,192.0,0.0,0.0,0.0,0.0,0.0,0.0,0.0,0.0,0.0,1676477936.272536,1
465,209.0,24216.528143468877,41682.80710969056,-40203.50160640498,-36415.1938456528,187500.0,8995.504259527237,-36784.422312310024,-13399.624931767576,0.002,0.998,0.108,192.0,0.0,0.0,0.0,0.0,0.0,0.0,0.0,0.0,0.0,1676477936.272561,1
466,210.0,24194.377564713668,41709.808016992574,-40331.84532306735,-36474.98476207075,187500.0,8934.416941930884,-37106.93563305565,-13710.247124462978,0.002,0.998,0.108,192.0,0.0,0.0,0.0,0.0,0.0,0.0,0.0,0.0,0.0,1676477936.272586,1
467,211.0,23965.18277706895,41513.425590208244,-40458.356196684384,-36494.18491055786,187500.0,8906.656075317393,-37787.03216159727,-14585.004995465875,0.002,0.998,0.108,192.0,0.0,0.0,0.0,0.0,0.0,0.0,0.0,0.0,0.0,1676477936.272611,1
468,212.0,24001.95139669793,41501.8473865804,-40333.94638704615,-36417.63018579843,187500.0,9005.048454409654,-37526.09789682602,-14357.665402610946,0.002,0.998,0.108,192.0,0.0,0.0,0.0,0.0,0.0,0.0,0.0,0.0,0.0,1676477936.272636,1
469,213.0,24262.393923091167,41716.46883684026,-40168.744643776976,-36358.263952525136,187500.0,9086.609969927069,-36786.590431522185,-13450.832778314683,0.002,0.998,0.108,192.0,0.0,0.0,0.0,0.0,0.0,0.0,0.0,0.0,0.0,1676477936.331147,1
470,214.0,24299.587225864798,41801.98661112626,-40255.424708774655,-36398.25122335568,187500.0,9039.894824015479,-36910.57555801577,-13502.174735328525,0.002,0.998,0.108,192.0,0.0,0.0,0.0,0.0,0.0,0.0,0.0,0.0,0.0,1676477936.331203,1
471,215.0,24056.04261827977,41618.14351298136,-40413.36213509586,-36425.4979998467,187500.0,8985.781250689179,-37652.31819776514,-14434.845976215121,-0.02,0.982,0.11,192.0,255.0,96.0,30.0,176.0,3.0,112.0,0.0,0.0,0.0,1676477936.331232,1
472,216.0,24017.97759747238,41543.86866615638,-40334.281663212976,-36367.80814740755,187500.0,9051.562434621148,-37576.09874917254,-14429.794481968223,-0.02,0.982,0.11,192.0,0.0,0.0,0.0,0.0,0.0,0.0,0.0,0.0,0.0,1676477936.331258,1
473,217.0,24269.255908638945,41733.992604493214,-40161.65914078464,-36308.061934478515,187500.0,9124.943211667922,-36836.56893212425,-13551.169759174558,-0.02,0.982,0.11,192.0,0.0,0.0,0.0,0.0,0.0,0.0,0.0,0.0,0.0,1676477936.331282,1
474,218.0,24366.284831319434,41851.07104195011,-40227.28386250542,-36346.66339715283,187500.0,9082.27373150274,-36787.61861176713,-13365.829094151151,-0.02,0.982,0.11,192.0,0.0,0.0,0.0,0.0,0.0,0.0,0.0,0.0,0.0,1676477936.331307,1
475,219.0,24131.658569772073,41672.99469387468,-40423.95686196767,-36413.4951130742,187500.0,9010.435224823383,-37567.269810112695,-14309.050358420654,-0.02,0.982,0.11,192.0,0.0,0.0,0.0,0.0,0.0,0.0,0.0,0.0,0.0,1676477936.331332,1
476,220.0,24003.80659148772,41540.69471844372,-40406.343687336885,-36382.783816192605,187500.0,9030.797664022168,-37698.94393669891,-14544.25776532385,-0.02,0.982,0.11,192.0,0.0,0.0,0.0,0.0,0.0,0.0,0.0,0.0,0.0,1676477936.331357,1
477,221.0,24203.22885551797,41687.74684521519,-40226.94858633859,-36316.868521793906,187500.0,9109.095824849108,-36985.81152985233,-13725.021627547936,-0.02,0.982,0.11,192.0,0.0,0.0,0.0,0.0,0.0,0.0,0.0,0.0,0.0,1676477936.331381,1
478,222.0,24351.689142190116,41841.9738819568,-40238.213865544065,-36342.99771106216,187500.0,9080.351481479584,-36739.830582121685,-13314.934172026416,-0.02,0.982,0.11,192.0,0.0,0.0,0.0,0.0,0.0,0.0,0.0,0.0,0.0,1676477936.331406,1
479,223.0,24144.175546667047,41692.552470273076,-40451.784783814524,-36430.43773537132,187500.0,8962.356622500018,-37470.59851534349,-14173.352917832484,-0.02,0.982,0.11,192.0,0.0,0.0,0.0,0.0,0.0,0.0,0.0,0.0,0.0,1676477936.33143,1
480,224.0,23970.770713182774,41521.02518332305,-40477.3551794714,-36419.32891837703,187500.0,8977.10877384052,-37783.768806906795,-14621.103062761196,-0.02,0.982,0.11,192.0,0.0,0.0,0.0,0.0,0.0,0.0,0.0,0.0,0.0,1676477936.331455,1
481,225.0,24127.501145303388,41612.46616988971,-40305.202043676625,-36364.07540608352,187500.0,9057.955033535365,-37156.17652609069,-13925.047388678478,-0.068,0.936,0.094,192.0,253.0,224.0,29.0,64.0,2.0,240.0,0.0,0.0,0.0,1676477936.33148,1
482,226.0,24312.171257993134,41786.94388710784,-40263.471336778566,-36385.22015633823,187500.0,9032.652858811958,-36738.82475362119,-13327.674666365941,-0.068,0.936,0.094,192.0,0.0,0.0,0.0,0.0,0.0,0.0,0.0,0.0,0.0,1676477936.331505,1
483,227.0,24156.06667471727,41692.66422899535,-40447.739118068115,-36464.524145665666,187500.0,8928.024343016667,-37363.44425242475,-14033.185128353254,-0.068,0.936,0.094,192.0,0.0,0.0,0.0,0.0,0.0,0.0,0.0,0.0,0.0,1676477936.331529,1
484,228.0,23943.948619836407,41490.44799690819,-40514.81670317849,-36470.08973003503,187500.0,8933.366409941484,-37835.982481954394,-14658.162255068095,-0.068,0.936,0.094,192.0,0.0,0.0,0.0,0.0,0.0,0.0,0.0,0.0,0.0,1676477936.384807,1
485,229.0,24055.126196757104,41539.64418645432,-40342.57416040589,-36411.37169735094,187500.0,9016.425492337405,-37310.47061806567,-14111.304475224553,-0.068,0.936,0.094,192.0,0.0,0.0,0.0,0.0,0.0,0.0,0.0,0.0,0.0,1676477936.384847,1
486,230.0,24278.42012386562,41746.48722964373,-40238.48208647753,-36393.57970876452,187500.0,9035.938565246888,-36732.74507912935,-13364.309175528191,-0.068,0.936,0.094,192.0,0.0,0.0,0.0,0.0,0.0,0.0,0.0,0.0,0.0,1676477936.384876,1
487,231.0,24162.3028114203,41695.413493563356,-40411.26107111706,-36479.36570398399,187500.0,8908.935953251834,-37224.46110540165,-13886.088298092878,-0.068,0.936,0.094,192.0,0.0,0.0,0.0,0.0,0.0,0.0,0.0,0.0,0.0,1676477936.384902,1
488,232.0,23917.595913123598,41478.44511013569,-40514.88375841186,-36508.914710153906,187500.0,8875.073060402043,-37836.18364765449,-14674.724897709477,-0.068,0.936,0.094,192.0,0.0,0.0,0.0,0.0,0.0,0.0,0.0,0.0,0.0,1676477936.384927,1
489,233.0,23976.783332441253,41482.803700304474,-40372.97253286511,-36455.11406124998,187500.0,8954.689974151846,-37452.627712801426,-14305.697596752358,-0.068,0.936,0.094,192.0,0.0,0.0,0.0,0.0,0.0,0.0,0.0,0.0,0.0,1676477936.384952,1
490,234.0,24226.251152306933,41692.17249061733,-40234.01173758647,-36420.468857344255,187500.0,9007.261277110729,-36784.981105921404,-13474.123296037114,-0.068,0.936,0.094,192.0,0.0,0.0,0.0,0.0,0.0,0.0,0.0,0.0,0.0,1676477936.384977,1
491,235.0,24198.44558220453,41707.41638033585,-40364.32240776091,-36491.927384367875,187500.0,8921.788206313635,-37087.51196712398,-13751.061409838368,-0.04,0.978,0.09,192.0,254.0,192.0,30.0,144.0,2.0,208.0,0.0,0.0,0.0,1676477936.38502,1
492,236.0,23953.559869952187,41497.37703768934,-40496.68943842524,-36521.94577717135,187500.0,8880.19160988231,-37779.05258882673,-14628.725007620456,-0.04,0.978,0.09,192.0,0.0,0.0,0.0,0.0,0.0,0.0,0.0,0.0,0.0,1676477936.385046,1
493,237.0,23933.197430753404,41437.6308247603,-40401.76157972355,-36481.22089877378,187500.0,8956.63457591946,-37580.81496725261,-14477.761325569312,-0.04,0.978,0.09,192.0,0.0,0.0,0.0,0.0,0.0,0.0,0.0,0.0,0.0,1676477936.385071,1
494,238.0,24160.514671863875,41617.450608903244,-40253.16718258467,-36443.044119244114,187500.0,9011.73162600179,-36884.98281061445,-13629.333809534766,-0.04,0.978,0.09,192.0,0.0,0.0,0.0,0.0,0.0,0.0,0.0,0.0,0.0,1676477936.447906,1
495,239.0,24191.516541423385,41684.17056610234,-40344.92109357371,-36497.872948392986,187500.0,8904.890287505423,-36999.46844571453,-13661.60972852823,-0.04,0.978,0.09,192.0,0.0,0.0,0.0,0.0,0.0,0.0,0.0,0.0,0.0,1676477936.447945,1
496,240.0,23941.087596546127,41481.17202295924,-40515.911938656805,-36556.18864967688,187500.0,8823.328771988008,-37749.436527423444,-14587.798963522788,-0.04,0.978,0.09,192.0,0.0,0.0,0.0,0.0,0.0,0.0,0.0,0.0,0.0,1676477936.447976,1
497,241.0,23866.209252620847,41372.72135886209,-40462.96065604218,-36531.44526856486,187500.0,8872.346147578495,-37735.48903888334,-14660.620946958179,-0.04,0.978,0.09,192.0,0.0,0.0,0.0,0.0,0.0,0.0,0.0,0.0,0.0,1676477936.448006,1
498,242.0,24060.848243337663,41515.77252337605,-40315.93088101517,-36510.83696017706,187500.0,8928.024343016667,-37056.10776616428,-13860.517902436008,-0.04,0.978,0.09,192.0,0.0,0.0,0.0,0.0,0.0,0.0,0.0,0.0,0.0,1676477936.448036,1
499,243.0,24131.524459305343,41605.38066689738,-40392.0832743744,-36580.06031275515,187500.0,8860.142095105899,-37007.984460352,-13684.028528216902,-0.04,0.978,0.09,192.0,0.0,0.0,0.0,0.0,0.0,0.0,0.0,0.0,0.0,1676477936.448066,1
500,244.0,23886.661098797453,41417.20133032815,-40587.281058702596,-36654.71513923587,187500.0,8737.20750060171,-37766.33444623166,-14591.375242635637,-0.022,0.988,0.07200000000000001,192.0,255.0,80.0,30.0,224.0,2.0,64.0,0.0,0.0,0.0,1676477936.448095,1
501,245.0,23742.335884849537,41259.75564238497,-40589.40447442585,-36656.39152007002,187500.0,8737.363962812897,-37956.07840491276,-14882.394955443735,-0.022,0.988,0.07200000000000001,192.0,0.0,0.0,0.0,0.0,0.0,0.0,0.0,0.0,0.0,1676477936.448125,1
502,246.0,23917.707671845874,41376.63291414177,-40424.448600345684,-36616.694821917394,187500.0,8799.658274609837,-37318.025507691564,-14154.108065856466,-0.022,0.988,0.07200000000000001,192.0,0.0,0.0,0.0,0.0,0.0,0.0,0.0,0.0,0.0,1676477936.448153,1
503,247.0,24048.66654260952,41522.34393624591,-40430.59533007089,-36656.279761347745,187500.0,8762.196750902744,-37075.039693717925,-13755.241186051511,-0.022,0.988,0.07200000000000001,192.0,0.0,0.0,0.0,0.0,0.0,0.0,0.0,0.0,0.0,1676477936.448183,1
504,248.0,23829.15006031395,41368.27336171548,-40643.272178563144,-36760.64005620957,187500.0,8642.90549074477,-37777.04093182575,-14580.825219252732,-0.022,0.988,0.07200000000000001,192.0,0.0,0.0,0.0,0.0,0.0,0.0,0.0,0.0,0.0,1676477936.448211,1
505,249.0,23631.20301141775,41169.65576048562,-40704.180682203856,-36780.24253609688,187500.0,8657.232958940622,-38137.1498867452,-15079.31382409499,-0.022,0.988,0.07200000000000001,192.0,0.0,0.0,0.0,0.0,0.0,0.0,0.0,0.0,0.0,1676477936.44824,1
506,250.0,23764.017076971184,41238.29796770787,-40569.91375326082,-36745.39616649105,187500.0,8680.992863296613,-37601.4232756404,-14471.078153977174,-0.022,0.988,0.07200000000000001,192.0,0.0,0.0,0.0,0.0,0.0,0.0,0.0,0.0,0.0,1676477936.44827,1
