sample,packet,eeg1,eeg2,eeg3,eeg4,eeg5,eeg6,eeg7,eeg8,accel1,accel2,accel3,other1,other2,other3,other4,other5,other6,other7,analog1,analog2,analog3,timestamp,marker
0,0.0,0.0,0.0,0.0,0.0,0.0,0.0,0.0,0.0,0.0,0.0,0.0,192.0,0.0,0.0,0.0,0.0,0.0,0.0,0.0,0.0,0.0,1676478416.420401,1
1,1.0,31604.986680148446,43324.6768503996,-32771.61363024874,-27495.596110295788,29019.582750747533,9288.490925847404,-23689.563416190555,-2429.0981804249504,-0.02,0.9580000000000001,0.186,192.0,255.0,96.0,29.0,240.0,5.0,208.0,0.0,0.0,0.0,1676478416.487255,1
2,2.0,31459.052140599746,43219.646003204114,-32917.70463200863,-27576.308259523903,28841.14877476082,9139.158921141496,-24247.97704791749,-3089.726339546006,-0.02,0.9580000000000001,0.186,192.0,0.0,0.0,0.0,0.0,0.0,0.0,0.0,0.0,0.0,1676478416.487293,1
3,3.0,31413.49928539983,43164.32543567722,-32886.479245004564,-27550.849622589307,28878.297374045538,9161.95770048591,-24290.80299029386,-3208.0788264368566,-0.02,0.9580000000000001,0.186,192.0,0.0,0.0,0.0,0.0,0.0,0.0,0.0,0.0,0.0,1676478416.48732,1
4,4.0,31544.547563141296,43252.167791386586,-32746.95965611454,-27472.19383385108,29051.210469151792,9296.40344338458,-23780.333850423558,-2634.9130433694177,-0.02,0.9580000000000001,0.186,192.0,0.0,0.0,0.0,0.0,0.0,0.0,0.0,0.0,0.0,1676478416.487345,1
5,5.0,31620.07410765578,43324.96742307752,-32755.05098760736,-27476.15009261967,29036.570076533568,9311.535574380825,-23642.937677256785,-2362.9370168372416,-0.02,0.9580000000000001,0.186,192.0,0.0,0.0,0.0,0.0,0.0,0.0,0.0,0.0,0.0,1676478416.48737,1
6,6.0,31488.489388047386,43234.73343071144,-32907.28871909246,-27563.679523906652,28849.217754509184,9158.38142137306,-24179.647765117617,-2979.8675155481715,-0.02,0.9580000000000001,0.186,192.0,0.0,0.0,0.0,0.0,0.0,0.0,0.0,0.0,0.0,1676478416.487394,1
7,7.0,31408.268977197287,43156.34586290668,-32908.160437126215,-27558.851547104307,28839.986484049143,9141.103522909109,-24348.403435755186,-3258.1914375056554,-0.02,0.9580000000000001,0.186,192.0,0.0,0.0,0.0,0.0,0.0,0.0,0.0,0.0,0.0,1676478416.487419,1
8,8.0,31518.843057017693,43225.27864280685,-32767.523261013423,-27481.514511288944,29011.93845414382,9270.900102961077,-23876.468703325834,-2756.26066401728,-0.038,0.9580000000000001,0.198,192.0,254.0,208.0,29.0,240.0,6.0,48.0,0.0,0.0,0.0,1676478416.487444,1
9,9.0,31626.176133892077,43323.91689108812,-32730.776993128897,-27456.257040054446,29056.396073865424,9333.663801391578,-23595.216702844704,-2328.6494408428002,-0.038,0.9580000000000001,0.198,192.0,0.0,0.0,0.0,0.0,0.0,0.0,0.0,0.0,0.0,1676478416.487468,1
10,10.0,31516.85375176117,43260.057957179306,-32886.59100372684,-27539.941971295117,28880.107865346417,9187.036357764764,-24069.498368441866,-2846.539359872265,-0.038,0.9580000000000001,0.198,192.0,0.0,0.0,0.0,0.0,0.0,0.0,0.0,0.0,0.0,1676478416.487493,1
11,11.0,31401.943433516437,43162.13496472061,-32937.597684573855,-27566.004105330005,28828.274169954562,9127.491310535826,-24373.77266571196,-3268.808516121926,-0.038,0.9580000000000001,0.198,192.0,0.0,0.0,0.0,0.0,0.0,0.0,0.0,0.0,0.0,1676478416.487518,1
12,12.0,31490.2328241149,43213.05223858979,-32803.28605214191,-27490.92459570463,28992.6936021678,9251.722306218422,-23970.50249224931,-2856.6870518549745,-0.038,0.9580000000000001,0.198,192.0,0.0,0.0,0.0,0.0,0.0,0.0,0.0,0.0,0.0,1676478416.487542,1
13,13.0,31618.800058221826,43318.977155563494,-32730.598179173256,-27450.065606840326,29079.172501465382,9343.90090035211,-23584.554920739523,-2329.5435106210125,-0.038,0.9580000000000001,0.198,192.0,0.0,0.0,0.0,0.0,0.0,0.0,0.0,0.0,0.0,1676478416.487567,1
14,14.0,31539.808993316772,43276.10650969821,-32868.106111062305,-27537.483279405034,28910.282720361083,9215.758349389835,-23968.580242226155,-2720.1402449775037,-0.038,0.9580000000000001,0.198,192.0,0.0,0.0,0.0,0.0,0.0,0.0,0.0,0.0,0.0,1676478416.487592,1
15,15.0,31405.229139951367,43163.699586832474,-32940.458707864134,-27579.996297359026,28815.444268637213,9128.228918102852,-24372.34215406682,-3252.0447077804456,-0.038,0.9580000000000001,0.198,192.0,0.0,0.0,0.0,0.0,0.0,0.0,0.0,0.0,0.0,1676478416.487616,1
16,16.0,31461.868460401114,43185.71605512095,-32820.92157851715,-27514.416279127156,28959.836537818497,9227.291849528772,-24058.546013658764,-2957.5157710928647,-0.038,0.9580000000000001,0.198,192.0,0.0,0.0,0.0,0.0,0.0,0.0,0.0,0.0,0.0,1676478416.547102,1
17,17.0,31602.77385744737,43298.771178575895,-32720.361080212726,-27459.363932533735,29081.206510210814,9332.881490335643,-23601.877522692386,-2371.8777146193643,-0.038,0.9580000000000001,0.198,192.0,0.0,0.0,0.0,0.0,0.0,0.0,0.0,0.0,0.0,1676478416.547145,1
18,18.0,31561.043150549314,43290.3669226607,-32836.81366882487,-27531.850639802295,28938.11064220794,9236.657230455547,-23874.322935858123,-2598.7032173518205,-0.044,0.964,0.198,192.0,254.0,160.0,30.0,32.0,6.0,48.0,0.0,0.0,0.0,1676478416.547177,1
19,19.0,31417.679061612973,43175.948342793985,-32940.41400437522,-27587.12650384027,28809.118724956363,9126.552537268703,-24364.228470829545,-3215.4772538515635,-0.044,0.964,0.198,192.0,0.0,0.0,0.0,0.0,0.0,0.0,0.0,0.0,0.0,1676478416.547207,1
20,20.0,31443.540029947762,43173.087319503706,-32844.055634028395,-27531.627122357742,28929.080537447997,9202.503764927837,-24159.464139874475,-3056.4222403075983,-0.044,0.964,0.198,192.0,0.0,0.0,0.0,0.0,0.0,0.0,0.0,0.0,0.0,1676478416.547236,1
21,21.0,31589.92160438557,43285.76246330291,-32716.829504588786,-27459.76626393393,29077.406713653414,9329.931060067542,-23643.407063890347,-2435.6025380614446,-0.044,0.964,0.198,192.0,0.0,0.0,0.0,0.0,0.0,0.0,0.0,0.0,0.0,1676478416.547265,1
22,22.0,31595.330726543754,43311.06463802631,-32793.45128458158,-27506.012023211963,28972.845253091487,9268.709632004457,-23773.494216620235,-2492.2418585111927,-0.044,0.964,0.198,192.0,0.0,0.0,0.0,0.0,0.0,0.0,0.0,0.0,0.0,1676478416.547311,1
23,23.0,31445.3728729931,43198.36714248266,-32925.68420477917,-27580.800960159417,28802.860236508877,9137.571947285169,-24322.408356953667,-3160.0896310913126,-0.044,0.964,0.198,192.0,0.0,0.0,0.0,0.0,0.0,0.0,0.0,0.0,0.0,1676478416.547338,1
24,24.0,31429.659596641017,43166.67236884504,-32866.02739882796,-27539.629046872742,28884.511159004112,9183.929465285477,-24240.779786202882,-3143.1246570497347,-0.044,0.964,0.198,192.0,0.0,0.0,0.0,0.0,0.0,0.0,0.0,0.0,0.0,1676478416.547363,1
25,25.0,31573.358961744187,43268.48456483896,-32727.37952797169,-27459.85567091175,29061.402864623415,9320.02923727384,-23708.02595711064,-2526.5741379945443,-0.044,0.964,0.198,192.0,0.0,0.0,0.0,0.0,0.0,0.0,0.0,0.0,0.0,1676478416.547388,1
26,26.0,31619.425907066576,43325.48151319999,-32771.703037226565,-27487.102447402773,29003.31068078407,9298.258638174371,-23693.542026703602,-2399.4374155327578,-0.044,0.964,0.198,192.0,0.0,0.0,0.0,0.0,0.0,0.0,0.0,0.0,0.0,1676478416.547413,1
27,27.0,31467.925783148505,43217.2990700363,-32922.487905322065,-27574.453064734113,28839.204172993206,9148.412543345994,-24246.837108950273,-3061.65254851014,-0.048,0.966,0.198,192.0,254.0,128.0,30.0,48.0,6.0,48.0,0.0,0.0,0.0,1676478416.547438,1
28,28.0,31417.41084067951,43162.06790948724,-32893.3635822968,-27553.30831447939,28874.341115276948,9164.416392375993,-24292.680536828106,-3200.814509488882,-0.048,0.966,0.198,192.0,0.0,0.0,0.0,0.0,0.0,0.0,0.0,0.0,0.0,1676478416.547463,1
29,29.0,31545.06165326377,43249.46323030749,-32749.977141616007,-27473.467883285033,29043.32030335907,9306.372321411649,-23776.601109099523,-2629.548624700144,-0.048,0.966,0.198,192.0,0.0,0.0,0.0,0.0,0.0,0.0,0.0,0.0,0.0,1676478416.547488,1
30,30.0,31627.472535070487,43328.72251614601,-32746.445565992068,-27471.053894883862,29042.18036439185,9328.008810044386,-23616.71908101071,-2338.2383392141273,-0.048,0.966,0.198,192.0,0.0,0.0,0.0,0.0,0.0,0.0,0.0,0.0,0.0,1676478416.547513,1
31,31.0,31498.033582929802,43244.00940466039,-32895.9116811647,-27557.488090692532,28856.57147843498,9170.563122101203,-24148.757654280384,-2951.7490210233955,-0.048,0.966,0.198,192.0,0.0,0.0,0.0,0.0,0.0,0.0,0.0,0.0,0.0,1676478416.607348,1
32,32.0,31414.147485989033,43160.74915656438,-32903.93595742416,-27561.198480272113,28846.155565518806,9147.138493912042,-24335.506479204476,-3238.7007163406274,-0.048,0.966,0.198,192.0,0.0,0.0,0.0,0.0,0.0,0.0,0.0,0.0,0.0,1676478416.607388,1
33,33.0,31524.52040010934,43232.63236673264,-32766.405673790658,-27485.49312180199,29018.800439691597,9267.54734129278,-23875.4852265698,-2748.5493121801987,-0.048,0.966,0.198,192.0,0.0,0.0,0.0,0.0,0.0,0.0,0.0,0.0,0.0,1676478416.607416,1
34,34.0,31628.67952927107,43328.11901904571,-32728.81003961683,-27460.414464523135,29058.206565166303,9327.248850732905,-23585.694859706746,-2319.820501782954,-0.048,0.966,0.198,192.0,0.0,0.0,0.0,0.0,0.0,0.0,0.0,0.0,0.0,1676478416.607442,1
35,35.0,31521.48056286342,43260.59439904623,-32881.00306761302,-27547.02747428745,28873.55880422101,9185.471735652893,-24055.305010712746,-2829.3955718750444,-0.048,0.966,0.198,192.0,0.0,0.0,0.0,0.0,0.0,0.0,0.0,0.0,0.0,1676478416.607467,1
36,36.0,31415.510942400808,43169.667502602046,-32923.02434718899,-27565.624125674265,28824.161448974784,9131.626383260058,-24365.323706307856,-3263.4217457081972,-0.048,0.966,0.198,192.0,0.0,0.0,0.0,0.0,0.0,0.0,0.0,0.0,0.0,1676478416.607491,1
37,37.0,31494.412600328043,43209.47595947695,-32796.11114217176,-27497.384249852214,28983.529386941125,9254.560977764248,-23969.87664340456,-2865.694804870463,-0.05,0.964,0.198,192.0,254.0,112.0,30.0,32.0,6.0,48.0,0.0,0.0,0.0,1676478416.607516,1
38,38.0,31626.109078658712,43317.792513107364,-32723.110344780725,-27457.598144721767,29072.869309528985,9336.949507826508,-23579.414019514803,-2337.7466008361102,-0.05,0.964,0.198,192.0,0.0,0.0,0.0,0.0,0.0,0.0,0.0,0.0,0.0,1676478416.607541,1
39,39.0,31555.119938268657,43280.77802428938,-32856.997294068016,-27538.064424760872,28908.695746504756,9215.49012845637,-23952.39757924051,-2712.4959483737885,-0.05,0.964,0.198,192.0,0.0,0.0,0.0,0.0,0.0,0.0,0.0,0.0,0.0,1676478416.607565,1
40,40.0,31420.763602347804,43166.11357523365,-32940.83868751987,-27586.344192784334,28804.111934198372,9125.680819234947,-24368.87763367625,-3262.5053241855294,-0.05,0.964,0.198,192.0,0.0,0.0,0.0,0.0,0.0,0.0,0.0,0.0,0.0,1676478416.60759,1
41,41.0,31473.75958845134,43186.431310943524,-32827.47063964255,-27517.746689050997,28951.856965047955,9225.950744861453,-24064.46922593942,-2974.8383730457276,-0.05,0.964,0.198,192.0,0.0,0.0,0.0,0.0,0.0,0.0,0.0,0.0,0.0,1676478416.607614,1
42,42.0,31619.716479744493,43302.66038211112,-32716.6730423776,-27446.064644582828,29078.479597387268,9342.537443940335,-23592.57919699898,-2369.6425401738334,-0.05,0.964,0.198,192.0,0.0,0.0,0.0,0.0,0.0,0.0,0.0,0.0,0.0,1676478416.607639,1
43,43.0,31582.523176970863,43293.89849828464,-32827.47063964255,-27516.33852915031,28936.031929973597,9246.827274182711,-23847.34438030057,-2582.31938866608,-0.05,0.964,0.198,192.0,0.0,0.0,0.0,0.0,0.0,0.0,0.0,0.0,0.0,1676478416.607679,1
44,44.0,31430.643073397052,43178.00470328387,-32939.11760319681,-27577.40349500221,28805.296576654506,9128.407732058493,-24346.659999687672,-3208.7046752816054,-0.05,0.964,0.198,192.0,0.0,0.0,0.0,0.0,0.0,0.0,0.0,0.0,0.0,1676478416.607704,1
45,45.0,31451.161974807022,43176.79770908329,-32846.35786370729,-27522.999348997993,28915.893008219366,9201.96732306091,-24153.138596193625,-3064.267702611411,-0.05,0.964,0.198,192.0,0.0,0.0,0.0,0.0,0.0,0.0,0.0,0.0,0.0,1676478416.607729,1
46,46.0,31592.87203465367,43285.60600109172,-32722.216275002516,-27458.067531355326,29059.055931455605,9327.18179549954,-23642.423587134315,-2448.879474267897,-0.05,0.964,0.198,192.0,0.0,0.0,0.0,0.0,0.0,0.0,0.0,0.0,0.0,1676478416.667626,1
47,47.0,31605.456066782008,43317.68075438509,-32796.82639799433,-27499.842941742296,28969.11251176745,9275.370451852137,-23757.915050734886,-2482.2506287396704,-0.056,0.96,0.198,192.0,254.0,64.0,30.0,0.0,6.0,48.0,0.0,0.0,0.0,1676478416.667666,1
48,48.0,31456.794614409762,43208.49248272091,-32927.51704782451,-27568.306335008903,28806.347108643906,9141.707020009402,-24295.876836285217,-3142.521159949441,-0.056,0.96,0.198,192.0,0.0,0.0,0.0,0.0,0.0,0.0,0.0,0.0,0.0,1676478416.667694,1
49,49.0,31434.197000765445,43172.75204333688,-32874.319896020876,-27534.465793903568,28873.089417587453,9183.460078651915,-24233.001379132438,-3148.62318618574,-0.056,0.96,0.198,192.0,0.0,0.0,0.0,0.0,0.0,0.0,0.0,0.0,0.0,1676478416.66772,1
50,50.0,31577.426979235053,43275.793585275846,-32739.650635677655,-27452.90427838615,29043.94615220382,9317.056455261285,-23705.723727431745,-2535.783056710131,-0.056,0.96,0.198,192.0,0.0,0.0,0.0,0.0,0.0,0.0,0.0,0.0,0.0,1676478416.667745,1
51,51.0,31628.478363570975,43338.02084183942,-32779.41438906365,-27470.696266972576,29001.12020982745,9301.589048098213,-23670.989116548197,-2388.1050810939173,-0.056,0.96,0.198,192.0,0.0,0.0,0.0,0.0,0.0,0.0,0.0,0.0,0.0,1676478416.66777,1
52,52.0,31482.879100189104,43235.0016516449,-32933.14968742725,-27555.901116836205,28814.103163969896,9147.406714845505,-24234.633056477673,-3051.08017338278,-0.056,0.96,0.198,192.0,0.0,0.0,0.0,0.0,0.0,0.0,0.0,0.0,0.0,1676478416.667794,1
53,53.0,31426.396241950544,43173.51200264836,-32910.46266680511,-27534.86812530376,28843.115728272885,9159.163732428997,-24304.750478833972,-3206.8941839807253,-0.056,0.96,0.198,192.0,0.0,0.0,0.0,0.0,0.0,0.0,0.0,0.0,0.0,1676478416.667819,1
54,54.0,31551.744824855905,43254.17944838756,-32768.30557206936,-27456.32409528781,29026.22121885076,9304.181850455028,-23790.794466828644,-2641.3056422836357,-0.056,0.96,0.198,192.0,0.0,0.0,0.0,0.0,0.0,0.0,0.0,0.0,0.0,1676478416.667843,1
55,55.0,31631.093517672245,43335.4280394826,-32766.62919123521,-27458.3804557777,29033.664349754377,9328.008810044386,-23619.691863023265,-2341.077010759951,-0.056,0.96,0.198,192.0,0.0,0.0,0.0,0.0,0.0,0.0,0.0,0.0,0.0,1676478416.667868,1
56,56.0,31499.084114919202,43249.30676809631,-32918.285777364465,-27551.833099345342,28840.031187538054,9174.80995354771,-24148.757654280384,-2946.8986924765936,-0.056,0.96,0.198,192.0,0.0,0.0,0.0,0.0,0.0,0.0,0.0,0.0,0.0,1676478416.667892,1
57,57.0,31411.21940746539,43162.98433100991,-32927.98643445807,-27561.801977372408,28826.441326909226,9141.796426987223,-24344.134252564225,-3250.301271712932,-0.064,0.964,0.196,192.0,254.0,0.0,30.0,32.0,6.0,32.0,0.0,0.0,0.0,1676478416.667917,1
58,58.0,31516.786696527804,43227.37970678565,-32788.77976999042,-27489.136456148204,29006.37286977445,9267.793210481788,-23885.34234587459,-2759.792239641218,-0.064,0.964,0.196,192.0,0.0,0.0,0.0,0.0,0.0,0.0,0.0,0.0,0.0,1676478416.667942,1
59,59.0,31623.695090257537,43320.944109075564,-32753.464013751032,-27466.67295297062,29053.04331219713,9322.286763463828,-23599.24001684666,-2323.799112295999,-0.064,0.964,0.196,192.0,0.0,0.0,0.0,0.0,0.0,0.0,0.0,0.0,0.0,1676478416.667967,1
60,60.0,31525.123897209633,43260.61675079069,-32898.12450386578,-27548.793262099418,28878.47618800118,9187.326930442683,-24064.201005005958,-2825.4616648509104,-0.064,0.964,0.196,192.0,0.0,0.0,0.0,0.0,0.0,0.0,0.0,0.0,0.0,1676478416.667991,1
61,61.0,31410.07946849817,43159.519810619335,-32941.10690845334,-27567.904003608706,28822.37330941836,9131.581679771147,-24380.321726837366,-3257.520885171996,-0.064,0.964,0.196,192.0,0.0,0.0,0.0,0.0,0.0,0.0,0.0,0.0,0.0,1676478416.7279,1
62,62.0,31489.718733992428,43197.78599712682,-32817.05472672638,-27500.40173535368,28975.482758937214,9239.182977578996,-23998.553931540722,-2871.9085898290386,-0.064,0.964,0.196,192.0,0.0,0.0,0.0,0.0,0.0,0.0,0.0,0.0,0.0,1676478416.727941,1
63,63.0,31625.662043769604,43311.46696942651,-32741.125850811706,-27454.96063887604,29061.93930649034,9329.484025178435,-23605.610264016424,-2335.801999068499,-0.064,0.964,0.196,192.0,0.0,0.0,0.0,0.0,0.0,0.0,0.0,0.0,0.0,1676478416.727973,1
64,64.0,31557.064540036266,43282.87908826817,-32865.1556807942,-27527.603808355787,28905.342984836458,9219.848718625155,-23957.918460120974,-2688.713692273342,-0.064,0.964,0.196,192.0,0.0,0.0,0.0,0.0,0.0,0.0,0.0,0.0,0.0,1676478416.728018,1
65,65.0,31422.484686670865,43171.92502879203,-32938.46940260761,-27566.898175108217,28816.785373304534,9136.409656573494,-24361.43450277263,-3228.485969124552,-0.064,0.964,0.196,192.0,0.0,0.0,0.0,0.0,0.0,0.0,0.0,0.0,0.0,1676478416.728045,1
66,66.0,31469.22218432691,43187.5936016552,-32831.762174577976,-27511.73406979252,28950.404101658358,9218.842890124666,-24075.220415022424,-2968.5798845982417,-0.064,0.964,0.196,192.0,0.0,0.0,0.0,0.0,0.0,0.0,0.0,0.0,0.0,1676478416.72807,1
67,67.0,31618.196561121535,43304.0685420118,-32720.696356379554,-27447.584563205786,29076.579699108566,9335.89897583711,-23599.821162202497,-2363.853438359909,-0.058,0.972,0.188,192.0,254.0,48.0,30.0,96.0,5.0,224.0,0.0,0.0,0.0,1676478416.728095,1
68,68.0,31591.77679917536,43307.4213036801,-32821.83800003982,-27506.012023211963,28941.172831198317,9258.293719088284,-23837.95664762934,-2551.2504638732034,-0.058,0.972,0.188,192.0,0.0,0.0,0.0,0.0,0.0,0.0,0.0,0.0,0.0,1676478416.72812,1
69,69.0,31440.857820613128,43190.633438901124,-32936.43539386218,-27569.043942575925,28799.50747484058,9129.346505325617,-24343.86603163076,-3186.129413381745,-0.058,0.972,0.188,192.0,0.0,0.0,0.0,0.0,0.0,0.0,0.0,0.0,0.0,1676478416.728144,1
70,70.0,31453.955942863937,43179.43521492901,-32856.17027952317,-27517.143191950705,28904.694784247255,9191.685520611469,-24165.36500041068,-3054.2988245843444,-0.058,0.972,0.188,192.0,0.0,0.0,0.0,0.0,0.0,0.0,0.0,0.0,0.0,1676478416.728168,1
71,71.0,31596.180092833056,43288.19880344854,-32737.035481576382,-27446.28816202738,29060.531146589656,9318.665780862068,-23652.459520394747,-2435.6025380614446,-0.058,0.972,0.188,192.0,0.0,0.0,0.0,0.0,0.0,0.0,0.0,0.0,0.0,1676478416.728193,1
72,72.0,31610.105229628713,43325.3250509888,-32810.282148156424,-27489.62819452622,28970.3865612014,9278.544399564791,-23752.528280321156,-2449.9523580017517,-0.058,0.972,0.188,192.0,0.0,0.0,0.0,0.0,0.0,0.0,0.0,0.0,0.0,1676478416.728218,1
73,73.0,31458.381588266086,43216.40500025809,-32948.99707424606,-27566.272326263468,28799.5968818184,9132.207528615896,-24305.108106745258,-3123.566880651341,-0.058,0.972,0.188,192.0,0.0,0.0,0.0,0.0,0.0,0.0,0.0,0.0,0.0,1676478416.728242,1
74,74.0,31434.018186809804,43181.31276146326,-32894.77174219749,-27529.749575823498,28872.217699553694,9168.998499989331,-24255.330771843288,-3142.007069826969,-0.058,0.972,0.188,192.0,0.0,0.0,0.0,0.0,0.0,0.0,0.0,0.0,0.0,1676478416.728267,1
75,75.0,31563.211269761476,43271.27853289587,-32755.67683645211,-27462.895508157675,29045.823698738066,9298.728024807933,-23729.97537016575,-2536.5430160216115,-0.058,0.972,0.188,192.0,0.0,0.0,0.0,0.0,0.0,0.0,0.0,0.0,0.0,1676478416.728292,1
76,76.0,31611.088706384744,43326.28617600038,-32784.689400755095,-27483.749685734474,29006.104648840985,9290.07789970373,-23682.701430642777,-2375.878676876864,-0.058,0.972,0.188,192.0,0.0,0.0,0.0,0.0,0.0,0.0,0.0,0.0,0.0,1676478416.787193,1
77,77.0,31464.349504035654,43219.93657588203,-32937.48592585158,-27573.51429146699,28824.09439374142,9140.231804875351,-24243.350236815244,-3036.685649953562,-0.062,0.964,0.18,192.0,254.0,16.0,30.0,32.0,5.0,160.0,0.0,0.0,0.0,1676478416.787233,1
78,78.0,31407.509017885808,43157.32933966271,-32915.11182965182,-27553.97886681305,28858.20315578022,9152.368802114583,-24320.53081041942,-3205.9554107136028,-0.062,0.964,0.18,192.0,0.0,0.0,0.0,0.0,0.0,0.0,0.0,0.0,0.0,1676478416.787261,1
79,79.0,31527.828458288728,43235.96277665649,-32775.52518552842,-27476.977107164515,29028.478745040746,9293.7435857944,-23815.582551429576,-2636.9023486259402,-0.062,0.964,0.18,192.0,0.0,0.0,0.0,0.0,0.0,0.0,0.0,0.0,0.0,1676478416.787287,1
80,80.0,31623.78449723536,43326.30852774483,-32769.71373197004,-27476.127740875214,29025.193038605816,9307.22168770095,-23641.19424118927,-2318.524100604546,-0.062,0.964,0.18,192.0,0.0,0.0,0.0,0.0,0.0,0.0,0.0,0.0,0.0,1676478416.787312,1
81,81.0,31505.85669348916,43254.112393154195,-32926.555922812935,-27567.233451275046,28828.654149610302,9143.405752588005,-24172.338744680732,-2925.4857212884094,-0.062,0.964,0.18,192.0,0.0,0.0,0.0,0.0,0.0,0.0,0.0,0.0,0.0,1676478416.787337,1
82,82.0,31408.1125149861,43170.89684854708,-32940.90574275324,-27565.98175358555,28813.678480825245,9127.536014024738,-24376.566633768874,-3233.0904284823455,-0.062,0.964,0.18,192.0,0.0,0.0,0.0,0.0,0.0,0.0,0.0,0.0,0.0,1676478416.787361,1
83,83.0,31502.727449265418,43228.34083179723,-32801.81083700786,-27487.527130547423,28992.514788212156,9259.232492355406,-23915.15957297797,-2746.515303434766,-0.062,0.964,0.18,192.0,0.0,0.0,0.0,0.0,0.0,0.0,0.0,0.0,0.0,1676478416.787386,1
84,84.0,31613.92737793057,43328.208426023535,-32757.107348097248,-27462.71669420203,29046.69541677182,9316.56471688327,-23602.95040642624,-2295.9488387046863,-0.062,0.964,0.18,192.0,0.0,0.0,0.0,0.0,0.0,0.0,0.0,0.0,0.0,1676478416.78741,1
85,85.0,31501.609862042653,43263.25425663641,-32908.49571329304,-27549.396759199713,28863.34405700494,9177.246293693339,-24063.329286972203,-2791.0176266452822,-0.062,0.964,0.18,192.0,0.0,0.0,0.0,0.0,0.0,0.0,0.0,0.0,0.0,1676478416.787435,1
86,86.0,31381.40218036201,43163.61017985466,-32957.803661561455,-27573.044904833427,28799.663937051766,9120.38345579904,-24389.64240427523,-3246.2779577109764,-0.062,0.964,0.18,192.0,0.0,0.0,0.0,0.0,0.0,0.0,0.0,0.0,0.0,1676478416.787476,1
87,87.0,31454.760605664327,43200.289392505816,-32831.181029222134,-27496.378421351725,28956.416720916837,9238.624183967613,-24007.09229792265,-2862.610264135631,-0.062,0.966,0.186,192.0,254.0,16.0,30.0,48.0,5.0,208.0,0.0,0.0,0.0,1676478416.787501,1
88,88.0,31579.72920891395,43300.40285592114,-32754.358083529245,-27449.14918531766,29049.80230925111,9330.176929256551,-23604.939711682764,-2319.3958186383034,-0.062,0.966,0.186,192.0,0.0,0.0,0.0,0.0,0.0,0.0,0.0,0.0,0.0,1676478416.787526,1
89,89.0,31508.114219679144,43267.255218893915,-32883.260593803,-27527.536753122422,28890.43437128477,9215.735997645379,-23958.99134385483,-2665.1102501285377,-0.062,0.966,0.186,192.0,0.0,0.0,0.0,0.0,0.0,0.0,0.0,0.0,0.0,1676478416.787551,1
90,90.0,31363.811357475683,43154.133040205605,-32972.08642626839,-27575.74946591252,28782.98953568811,9118.014170886776,-24395.856189233804,-3230.9223092701804,-0.062,0.966,0.186,192.0,0.0,0.0,0.0,0.0,0.0,0.0,0.0,0.0,0.0,1676478416.787575,1
91,91.0,31410.750020831827,43173.0426160148,-32861.89232610373,-27507.97897672403,28926.465383346724,9212.673808655001,-24112.54782826279,-2974.368986412166,-0.062,0.966,0.186,192.0,0.0,0.0,0.0,0.0,0.0,0.0,0.0,0.0,0.0,1676478416.85018,1
92,92.0,31556.39398770261,43285.650704580636,-32756.459147508045,-27442.980103847996,29055.88198374295,9331.540385668324,-23635.807470775544,-2362.6464441593225,-0.062,0.966,0.186,192.0,0.0,0.0,0.0,0.0,0.0,0.0,0.0,0.0,0.0,1676478416.850221,1
93,93.0,31530.91299902356,43289.56225986031,-32864.97686683856,-27507.55429357938,28919.715156521223,9241.418152024526,-23868.220909621825,-2543.203835869293,-0.062,0.966,0.186,192.0,0.0,0.0,0.0,0.0,0.0,0.0,0.0,0.0,0.0,1676478416.850252,1
94,94.0,31382.31860188468,43176.61889512764,-32981.02712405052,-27566.98758208604,28772.70773323867,9131.000534415309,-24378.757104725493,-3183.8942389362146,-0.062,0.966,0.186,192.0,0.0,0.0,0.0,0.0,0.0,0.0,0.0,0.0,0.0,1676478416.850281,1
95,95.0,31398.25539568131,43170.11453749115,-32894.50352126402,-27513.432802371124,28883.170054336795,9206.594134163159,-24207.296873008832,-3057.5174757859086,-0.062,0.966,0.186,192.0,0.0,0.0,0.0,0.0,0.0,0.0,0.0,0.0,0.0,1676478416.850311,1
96,96.0,31540.546600883798,43276.8664690097,-32767.970295902527,-27445.10351957125,29040.07930041305,9328.142920511118,-23683.841369609996,-2425.387790845369,-0.062,0.962,0.192,192.0,254.0,16.0,30.0,16.0,6.0,0.0,0.0,0.0,0.0,1676478416.85034,1
97,97.0,31556.751615613895,43309.85764382573,-32837.84184906982,-27485.694287502087,28954.62858136041,9280.779574010323,-23769.873234018476,-2419.822206475998,-0.062,0.962,0.192,192.0,0.0,0.0,0.0,0.0,0.0,0.0,0.0,0.0,0.0,1676478416.850398,1
98,98.0,31405.609119607107,43195.70728489248,-32974.790987347485,-27560.97496282756,28784.487102566614,9146.825569489667,-24324.375310465733,-3091.8944587581705,-0.062,0.962,0.192,192.0,0.0,0.0,0.0,0.0,0.0,0.0,0.0,0.0,0.0,1676478416.850427,1
99,99.0,31382.184491417946,43156.27880767331,-32921.05739367693,-27526.128593221736,28852.79403362203,9187.8186688207,-24282.622251823217,-3125.3773719522205,-0.062,0.962,0.192,192.0,0.0,0.0,0.0,0.0,0.0,0.0,0.0,0.0,0.0,1676478416.850456,1
100,100.0,31527.828458288728,43258.649797278624,-32775.458130295054,-27447.09282482777,29037.955884689796,9318.911650051075,-23740.771262737664,-2512.939573876807,-0.062,0.962,0.192,192.0,0.0,0.0,0.0,0.0,0.0,0.0,0.0,0.0,0.0,1676478416.850485,1
101,101.0,31582.120845570666,43321.88288234269,-32807.33171788832,-27467.969354149027,29004.36121277347,9300.40440564208,-23685.763619633155,-2343.379240438848,-0.062,0.962,0.192,192.0,0.0,0.0,0.0,0.0,0.0,0.0,0.0,0.0,0.0,1676478416.850512,1
102,102.0,31434.018186809804,43217.32142178076,-32959.86002205134,-27553.30831447939,28813.432611636235,9148.233729390351,-24238.812832690815,-3002.2863152368445,-0.062,0.962,0.192,192.0,0.0,0.0,0.0,0.0,0.0,0.0,0.0,0.0,0.0,1676478416.850541,1
103,103.0,31377.647087293517,43158.55868560776,-32936.189524673166,-27533.750538080996,28837.728957859155,9157.085020194652,-24318.89913307418,-3186.330579081843,-0.062,0.962,0.192,192.0,0.0,0.0,0.0,0.0,0.0,0.0,0.0,0.0,0.0,1676478416.85057,1
104,104.0,31504.917920222037,43245.998709916916,-32789.5397293019,-27451.33965627428,29016.520561757156,9297.789251540811,-23811.134554282973,-2621.412589718412,-0.062,0.962,0.192,192.0,0.0,0.0,0.0,0.0,0.0,0.0,0.0,0.0,0.0,1676478416.850599,1
105,105.0,31601.142180102135,43337.931434861595,-32771.971258160025,-27438.48740321248,29029.84220145252,9336.457769448492,-23612.8745809644,-2276.793393706488,-0.062,0.962,0.192,192.0,0.0,0.0,0.0,0.0,0.0,0.0,0.0,0.0,0.0,1676478416.850627,1
106,106.0,31473.066684373225,43252.99480593143,-32927.94173096916,-27530.35307292379,28841.886382327844,9175.704023325923,-24135.503069818387,-2873.5849706631866,-0.062,0.9580000000000001,0.196,192.0,254.0,16.0,29.0,240.0,6.0,32.0,0.0,0.0,0.0,1676478416.907898,1
107,107.0,31389.31469789919,43171.92502879203,-32941.68805380917,-27532.07415724685,28831.202248478206,9148.8595782351,-24352.38204626823,-3205.7989485024154,-0.062,0.9580000000000001,0.196,192.0,0.0,0.0,0.0,0.0,0.0,0.0,0.0,0.0,0.0,1676478416.907954,1
108,108.0,31496.826588729215,43236.54392201232,-32797.76517126145,-27458.492214499976,29003.042459850607,9278.186771653507,-23902.50848561627,-2732.545463150199,-0.062,0.9580000000000001,0.196,192.0,0.0,0.0,0.0,0.0,0.0,0.0,0.0,0.0,0.0,1676478416.907982,1
109,109.0,31612.385107563154,43336.187998794085,-32747.361987514734,-27433.055929309838,29048.640018539434,9343.789141629833,-23589.561711497514,-2272.434803537703,-0.062,0.9580000000000001,0.196,192.0,0.0,0.0,0.0,0.0,0.0,0.0,0.0,0.0,0.0,1676478416.908007,1
110,110.0,31515.780868027316,43279.88395451116,-32893.02830612997,-27520.138325707714,28871.301278031027,9207.331741730182,-24033.959094757927,-2754.4054692274894,-0.062,0.9580000000000001,0.196,192.0,0.0,0.0,0.0,0.0,0.0,0.0,0.0,0.0,0.0,1676478416.908032,1
111,111.0,31395.081447968656,43178.317627706245,-32948.23711493458,-27544.74759635301,28806.391812132813,9144.702153766413,-24372.990354656024,-3218.673553308672,-0.062,0.9580000000000001,0.196,192.0,0.0,0.0,0.0,0.0,0.0,0.0,0.0,0.0,0.0,1676478416.908057,1
112,112.0,31465.243573813867,43212.582851956235,-32828.72233733205,-27478.608784509754,28961.624677374923,9253.868073686132,-24000.096201908138,-2848.3274994286894,-0.062,0.9580000000000001,0.196,192.0,0.0,0.0,0.0,0.0,0.0,0.0,0.0,0.0,0.0,1676478416.908082,1
113,113.0,31604.226720836967,43327.314356245326,-32746.95965611454,-27425.389280961666,29060.642905311932,9353.400391745614,-23582.878539905374,-2288.0586729119627,-0.062,0.9580000000000001,0.196,192.0,0.0,0.0,0.0,0.0,0.0,0.0,0.0,0.0,0.0,1676478416.908106,1
114,114.0,31543.25116196289,43302.056885010825,-32879.438445501146,-27494.97026145104,28900.492656289658,9242.803960180756,-23927.140108006017,-2620.1832437733706,-0.062,0.9580000000000001,0.196,192.0,0.0,0.0,0.0,0.0,0.0,0.0,0.0,0.0,0.0,1676478416.908131,1
115,115.0,31401.049363738224,43184.129081264626,-32975.90857457025,-27543.898230063707,28787.83986423491,9141.595261287124,-24374.06323838988,-3196.142994897723,-0.062,0.9580000000000001,0.196,192.0,0.0,0.0,0.0,0.0,0.0,0.0,0.0,0.0,0.0,1676478416.908156,1
116,116.0,31436.901561844537,43190.49932843439,-32879.61725945678,-27489.87406371523,28914.551903552045,9227.850643140155,-24117.48756378741,-2957.113439692669,-0.058,0.96,0.194,192.0,254.0,48.0,30.0,0.0,6.0,16.0,0.0,0.0,0.0,1676478416.908181,1
117,117.0,31583.43959849353,43307.89069031366,-32766.517432512934,-27432.005397320438,29050.98695170724,9343.163292785084,-23627.716139282722,-2347.916644563275,-0.058,0.96,0.194,192.0,0.0,0.0,0.0,0.0,0.0,0.0,0.0,0.0,0.0,1676478416.908205,1
118,118.0,31562.92069708356,43316.272594484406,-32861.28882900343,-27492.176293394125,28937.998883485663,9257.064373143241,-23834.447423749858,-2512.336076776514,-0.058,0.96,0.194,192.0,0.0,0.0,0.0,0.0,0.0,0.0,0.0,0.0,0.0,1676478416.90823,1
119,119.0,31410.92883478747,43199.68589540552,-32976.892051326286,-27552.503651679,28798.50164634009,9143.830435732656,-24344.268363030955,-3146.3209565068432,-0.058,0.96,0.194,192.0,0.0,0.0,0.0,0.0,0.0,0.0,0.0,0.0,0.0,1676478416.908255,1
120,120.0,31418.997814535836,43182.43034868602,-32897.31984106539,-27505.11795343375,28896.42463879879,9214.908983100531,-24186.3085849653,-3037.1103330982132,-0.058,0.96,0.194,192.0,0.0,0.0,0.0,0.0,0.0,0.0,0.0,0.0,0.0,1676478416.90828,1
121,121.0,31560.774929615847,43283.77315804639,-32768.30557206936,-27437.794499134365,29044.706111515297,9341.710429395489,-23665.714104856743,-2411.686171494266,-0.058,0.96,0.194,192.0,0.0,0.0,0.0,0.0,0.0,0.0,0.0,0.0,0.0,1676478416.968318,1
122,122.0,31571.302601254298,43314.61856539471,-32838.22182872556,-27483.235595612005,28956.01438951664,9283.528838578324,-23745.912163962385,-2399.9068021663193,-0.058,0.96,0.194,192.0,0.0,0.0,0.0,0.0,0.0,0.0,0.0,0.0,0.0,1676478416.968358,1
123,123.0,31417.008509279312,43202.70338090699,-32983.26229849605,-27565.49001520753,28780.977878687132,9138.555424041204,-24311.076022514826,-3085.6359703106846,-0.058,0.96,0.194,192.0,0.0,0.0,0.0,0.0,0.0,0.0,0.0,0.0,0.0,1676478416.968386,1
124,124.0,31391.862796767095,43163.31960717674,-32926.332405368375,-27529.883686290228,28858.314914502495,9180.554351872725,-24264.830263236796,-3122.5163486619413,-0.058,0.96,0.194,192.0,0.0,0.0,0.0,0.0,0.0,0.0,0.0,0.0,0.0,1676478416.968411,1
125,125.0,31527.292016421798,43255.83347747725,-32785.82933972232,-27455.407673765145,29025.88594268393,9316.005923271887,-23736.055044657594,-2518.751027435187,-0.058,0.96,0.194,192.0,0.0,0.0,0.0,0.0,0.0,0.0,0.0,0.0,0.0,1676478416.968436,1
126,126.0,31579.57274670276,43313.83625433878,-32816.853561026284,-27478.184101365103,28980.422494461836,9306.819356300755,-23678.052267796073,-2334.527949634546,-0.054,0.962,0.2,192.0,254.0,80.0,30.0,16.0,6.0,64.0,0.0,0.0,0.0,1676478416.96846,1
127,127.0,31434.398166465544,43210.03475308833,-32966.677304110206,-27564.64064891823,28795.84178874991,9153.508741081803,-24236.309437311822,-2992.317437209778,-0.054,0.962,0.2,192.0,0.0,0.0,0.0,0.0,0.0,0.0,0.0,0.0,0.0,1676478416.968485,1
128,128.0,31374.093159925123,43148.00866222485,-32943.252675921045,-27545.529907408945,28827.357748431892,9157.353241128116,-24326.185801766613,-3178.9545034115918,-0.054,0.962,0.2,192.0,0.0,0.0,0.0,0.0,0.0,0.0,0.0,0.0,0.0,1676478416.968525,1
129,129.0,31497.050106173767,43230.59835798721,-32799.41920035114,-27463.499005257967,29014.21833207826,9291.731928793422,-23820.455231720833,-2619.6691536508984,-0.054,0.962,0.2,192.0,0.0,0.0,0.0,0.0,0.0,0.0,0.0,0.0,0.0,1676478416.96855,1
130,130.0,31585.38420026114,43313.16570200511,-32791.551386302875,-27460.995609878973,29023.31549207157,9319.31398145127,-23622.083499679986,-2275.608751250357,-0.054,0.962,0.2,192.0,0.0,0.0,0.0,0.0,0.0,0.0,0.0,0.0,0.0,1676478416.968574,1
131,131.0,31464.46126275793,43231.31361380978,-32946.56073410043,-27551.341360967323,28830.196419977718,9164.259930164806,-24140.06282568727,-2862.766726346818,-0.054,0.962,0.2,192.0,0.0,0.0,0.0,0.0,0.0,0.0,0.0,0.0,0.0,1676478416.968599,1
132,132.0,31362.693770252918,43135.91636847453,-32971.54998440146,-27564.417131473678,28800.580358574436,9125.94904016841,-24375.761970968484,-3209.196413659622,-0.054,0.962,0.2,192.0,0.0,0.0,0.0,0.0,0.0,0.0,0.0,0.0,0.0,1676478416.968624,1
133,133.0,31457.666332443518,43190.96871506795,-32835.181991479636,-27486.923633447128,28970.20774724576,9245.106189859653,-23934.672645887455,-2740.905015576484,-0.054,0.962,0.2,192.0,0.0,0.0,0.0,0.0,0.0,0.0,0.0,0.0,0.0,1676478416.968648,1
134,134.0,31574.588307689228,43293.00442850643,-32791.551386302875,-27463.52135700242,29019.895675169908,9307.8475365457,-23616.048528677053,-2276.0110826505525,-0.054,0.962,0.2,192.0,0.0,0.0,0.0,0.0,0.0,0.0,0.0,0.0,0.0,1676478416.968673,1
135,135.0,31475.883004174593,43235.78396270084,-32932.88146649378,-27547.474509176554,28847.027283552565,9176.754555315323,-24046.56547863072,-2741.575567910143,-0.054,0.962,0.2,192.0,0.0,0.0,0.0,0.0,0.0,0.0,0.0,0.0,0.0,1676478416.968697,1
136,136.0,31347.561639256674,43128.18266489299,-32978.68019088271,-27568.462797220087,28782.095465909897,9115.600182485603,-24385.77555248446,-3212.236250905544,-0.05,0.96,0.2,192.0,254.0,112.0,30.0,0.0,6.0,64.0,0.0,0.0,0.0,1676478417.027892,1
137,137.0,31404.200959706424,43147.94160699149,-32849.509459675486,-27500.602901053775,28938.15534569685,9226.10720707264,-24013.194324158947,-2842.5831011036757,-0.05,0.96,0.2,192.0,0.0,0.0,0.0,0.0,0.0,0.0,0.0,0.0,0.0,1676478417.027934,1
138,138.0,31515.982033727414,43238.48852377993,-32776.41925530663,-27465.220089581024,29028.255227596193,9317.905821550587,-23602.14574362585,-2284.996483921586,-0.05,0.96,0.2,192.0,0.0,0.0,0.0,0.0,0.0,0.0,0.0,0.0,0.0,1676478417.027965,1
139,139.0,31441.595428180153,43201.31757275076,-32906.93109118117,-27544.479375419545,28870.89894663083,9204.023683550797,-23941.624038413054,-2613.7235896257866,-0.05,0.96,0.2,192.0,0.0,0.0,0.0,0.0,0.0,0.0,0.0,0.0,0.0,1676478417.027995,1
140,140.0,31281.668696602428,43074.314960755706,-32999.891996370796,-27588.3111462964,28764.549346512482,9111.71097895038,-24379.762933225982,-3192.879640207248,-0.05,0.96,0.2,192.0,0.0,0.0,0.0,0.0,0.0,0.0,0.0,0.0,0.0,1676478417.028024,1
141,141.0,31312.558807439666,43077.10892881262,-32899.219739344095,-27528.54258162291,28894.681202731277,9205.476546940392,-24111.25142708438,-2953.4477536019986,-0.05,0.96,0.2,192.0,0.0,0.0,0.0,0.0,0.0,0.0,0.0,0.0,0.0,1676478417.028053,1
142,142.0,31443.003588080835,43172.26030495886,-32794.770037504444,-27469.5339762609,29023.583713005035,9326.019504787864,-23632.34295038497,-2337.1654554802726,-0.05,0.96,0.2,192.0,0.0,0.0,0.0,0.0,0.0,0.0,0.0,0.0,0.0,1676478417.028083,1
143,143.0,31400.088238726647,43161.50911587586,-32904.83002720237,-27534.108165992282,28895.217644598204,9233.68444844299,-23843.701045954353,-2492.085396300006,-0.05,0.96,0.2,192.0,0.0,0.0,0.0,0.0,0.0,0.0,0.0,0.0,0.0,1676478417.028112,1
144,144.0,31243.536620561677,43044.453030163415,-33026.311758316966,-27592.26740506499,28751.11594809484,9112.51564175077,-24367.670639475662,-3148.265558274455,-0.05,0.96,0.2,192.0,0.0,0.0,0.0,0.0,0.0,0.0,0.0,0.0,0.0,1676478417.02814,1
145,145.0,31243.51426881722,43020.00022172931,-32945.1749259442,-27537.997369527504,28848.94953357572,9179.10148848313,-24218.629207447673,-3048.532074514875,-0.05,0.96,0.2,192.0,0.0,0.0,0.0,0.0,0.0,0.0,0.0,0.0,0.0,1676478417.028169,1
146,146.0,31381.78216001775,43119.51018804433,-32813.746668547,-27465.108330858748,28998.102724325985,9305.321789422249,-23695.4419249823,-2412.4908342946574,-0.056,0.968,0.20400000000000001,192.0,254.0,64.0,30.0,64.0,6.0,96.0,0.0,0.0,0.0,1676478417.028198,1
147,147.0,31400.267052682288,43156.32351116223,-32869.49191921853,-27499.619424297744,28923.425546100803,9259.947748177976,-23752.125948920962,-2377.599761199923,-0.056,0.968,0.20400000000000001,192.0,0.0,0.0,0.0,0.0,0.0,0.0,0.0,0.0,0.0,1676478417.028227,1
148,148.0,31242.46373682782,43041.12262023957,-33004.71997317314,-27578.78930315844,28762.22476508913,9116.89658366401,-24300.99538576548,-3057.137496130168,-0.056,0.968,0.20400000000000001,192.0,0.0,0.0,0.0,0.0,0.0,0.0,0.0,0.0,0.0,1676478417.028255,1
149,149.0,31209.18198933387,42995.88268946203,-32953.48977488158,-27549.754387110996,28833.258608968095,9157.129723683563,-24277.682516298595,-3114.201499724567,-0.056,0.968,0.20400000000000001,192.0,0.0,0.0,0.0,0.0,0.0,0.0,0.0,0.0,0.0,1676478417.028283,1
150,150.0,31345.10294736659,43087.81541440671,-32809.49983710049,-27474.00432515196,29022.063794382073,9290.904914248576,-23748.057931430096,-2503.1495098053824,-0.056,0.968,0.20400000000000001,192.0,0.0,0.0,0.0,0.0,0.0,0.0,0.0,0.0,0.0,1676478417.028327,1
151,151.0,31402.926910272472,43153.46248787195,-32831.4492501556,-27490.835188726807,28975.415703703846,9282.433603100015,-23671.190282248295,-2297.2899433720045,-0.056,0.968,0.20400000000000001,192.0,0.0,0.0,0.0,0.0,0.0,0.0,0.0,0.0,0.0,1676478417.088192,1
152,152.0,31255.561859078633,43052.32084421168,-32988.58201367641,-27584.824274161372,28776.462826307157,9127.960697169388,-24231.615570976206,-2960.06386996077,-0.056,0.968,0.20400000000000001,192.0,0.0,0.0,0.0,0.0,0.0,0.0,0.0,0.0,0.0,1676478417.088232,1
153,153.0,31200.665974696396,42992.708741749375,-32969.76184484504,-27571.256765277,28797.026431206043,9133.369819327572,-24338.63572342822,-3176.5405150104184,-0.056,0.968,0.20400000000000001,192.0,0.0,0.0,0.0,0.0,0.0,0.0,0.0,0.0,0.0,1676478417.08826,1
154,154.0,31321.097173821592,43070.33635024266,-32819.31225291637,-27490.43285732661,28982.568261929544,9265.021594169331,-23830.781737659185,-2628.0287060771834,-0.056,0.968,0.20400000000000001,192.0,0.0,0.0,0.0,0.0,0.0,0.0,0.0,0.0,0.0,1676478417.088286,1
155,155.0,31414.818038322694,43154.267150672335,-32796.42406659413,-27474.518415274433,29001.142561571905,9308.540440623814,-23610.170019885307,-2268.076213368918,-0.056,0.968,0.20400000000000001,192.0,0.0,0.0,0.0,0.0,0.0,0.0,0.0,0.0,0.0,1676478417.088311,1
156,156.0,31293.112789763545,43078.695902668944,-32950.47228938011,-27562.047846561414,28813.723184314156,9164.304633653717,-24118.2922265878,-2846.18173196098,-0.056,0.962,0.20600000000000002,192.0,254.0,64.0,30.0,16.0,6.0,112.0,0.0,0.0,0.0,1676478417.088336,1
157,157.0,31197.670840939387,42990.205346370385,-32974.56746990293,-27569.98271584305,28783.5930327884,9133.213357116385,-24359.556956238386,-3202.7591112564937,-0.056,0.962,0.20600000000000002,192.0,0.0,0.0,0.0,0.0,0.0,0.0,0.0,0.0,0.0,1676478417.08836,1
158,158.0,31302.34406022359,43053.661948879,-32834.958474035084,-27494.500874817477,28952.460462148247,9251.945823662976,-23921.64157887001,-2748.2810912467353,-0.056,0.962,0.20600000000000002,192.0,0.0,0.0,0.0,0.0,0.0,0.0,0.0,0.0,0.0,1676478417.088385,1
159,159.0,31422.819962837693,43154.51301986135,-32784.33177284381,-27467.701133215563,29006.685794196823,9323.314943708772,-23597.921263923796,-2283.387158320804,-0.056,0.962,0.20600000000000002,192.0,0.0,0.0,0.0,0.0,0.0,0.0,0.0,0.0,0.0,1676478417.08841,1
160,160.0,31329.501429736785,43102.99224889186,-32933.64142580526,-27559.052712804405,28829.101184499406,9185.427032163981,-24031.455699378934,-2754.9866145833275,-0.056,0.962,0.20600000000000002,192.0,0.0,0.0,0.0,0.0,0.0,0.0,0.0,0.0,0.0,1676478417.088434,1
161,161.0,31217.563893504608,43011.93124198094,-32993.655859667764,-27589.473437008077,28764.191718601196,9104.960752124876,-24387.58604378534,-3248.0437455229458,-0.056,0.962,0.20600000000000002,192.0,0.0,0.0,0.0,0.0,0.0,0.0,0.0,0.0,0.0,1676478417.088459,1
162,162.0,31295.90675782046,43056.14299251354,-32861.467642959076,-27516.33852915031,28921.01155769963,9217.926468601998,-24021.218600418404,-2896.540212218787,-0.056,0.962,0.20600000000000002,192.0,0.0,0.0,0.0,0.0,0.0,0.0,0.0,0.0,0.0,1676478417.088484,1
163,163.0,31439.159088034525,43170.7403863359,-32769.51256626994,-27466.00240063696,29027.36115781798,9321.146824496607,-23584.71138295071,-2333.0080310115854,-0.056,0.962,0.20600000000000002,192.0,0.0,0.0,0.0,0.0,0.0,0.0,0.0,0.0,0.0,1676478417.088508,1
164,164.0,31380.731628028352,43148.16512443604,-32892.17893984067,-27541.752462595996,28872.418865253792,9206.48237544088,-23908.811677552665,-2647.0276888641943,-0.056,0.962,0.20600000000000002,192.0,0.0,0.0,0.0,0.0,0.0,0.0,0.0,0.0,0.0,1676478417.088533,1
165,165.0,31239.08862341507,43037.523989382265,-32983.8881473408,-27592.84855042083,28753.37347428483,9099.32811252214,-24364.67550571865,-3239.192454718644,-0.058,0.9580000000000001,0.20400000000000001,192.0,254.0,48.0,29.0,240.0,6.0,96.0,0.0,0.0,0.0,1676478417.088558,1
166,166.0,31284.57442338162,43055.89712332453,-32879.773721667974,-27534.979884026037,28877.358600778414,9183.951817029932,-24113.084270129715,-3019.988896845448,-0.058,0.9580000000000001,0.20400000000000001,192.0,0.0,0.0,0.0,0.0,0.0,0.0,0.0,0.0,0.0,1676478417.148933,1
167,167.0,31430.37485246359,43168.8404880572,-32771.50187152647,-27477.044162397884,29009.50211399819,9304.003036499385,-23624.13986016987,-2416.0000581741406,-0.058,0.9580000000000001,0.20400000000000001,192.0,0.0,0.0,0.0,0.0,0.0,0.0,0.0,0.0,0.0,1676478417.148975,1
168,168.0,31426.910332073014,43192.71215113546,-32866.630895928254,-27536.835078815828,28889.540301506557,9228.767064662823,-23813.23561826177,-2549.909359205885,-0.058,0.9580000000000001,0.20400000000000001,192.0,0.0,0.0,0.0,0.0,0.0,0.0,0.0,0.0,0.0,1676478417.149006,1
169,169.0,31282.294545447177,43081.57927770368,-32989.27491775453,-27606.2148936051,28742.64463694628,9104.401958513494,-24334.277133259435,-3198.6240385322617,-0.058,0.9580000000000001,0.20400000000000001,192.0,0.0,0.0,0.0,0.0,0.0,0.0,0.0,0.0,0.0,1676478417.149036,1
170,170.0,31290.877615318015,43065.843649607144,-32910.66383250521,-27550.402587700202,28840.70173987171,9162.941177241943,-24197.01507055939,-3119.0294765269136,-0.058,0.9580000000000001,0.20400000000000001,192.0,0.0,0.0,0.0,0.0,0.0,0.0,0.0,0.0,0.0,1676478417.149066,1
171,171.0,31440.924875846493,43174.98721778241,-32778.1850431186,-27478.318211831836,28997.49922722569,9288.356815380672,-23674.319526472038,-2499.0814923145167,-0.058,0.9580000000000001,0.20400000000000001,192.0,0.0,0.0,0.0,0.0,0.0,0.0,0.0,0.0,0.0,1676478417.149111,1
172,172.0,31466.539974992276,43215.6003374577,-32840.07702351535,-27512.91871224865,28923.872580989908,9253.510445774848,-23727.471974786757,-2450.689965568777,-0.058,0.9580000000000001,0.20400000000000001,192.0,0.0,0.0,0.0,0.0,0.0,0.0,0.0,0.0,0.0,1676478417.149138,1
173,173.0,31310.34598473859,43104.10983611463,-32990.75013288857,-27598.74941095703,28738.17428805522,9101.093900334108,-24291.026507738414,-3125.7126481190503,-0.058,0.9580000000000001,0.20400000000000001,192.0,0.0,0.0,0.0,0.0,0.0,0.0,0.0,0.0,0.0,1676478417.149163,1
174,174.0,31281.80280706916,43064.167268772995,-32946.15840270024,-27570.765026898986,28790.455018336183,9134.062723405686,-24280.677650055608,-3195.807718730893,-0.058,0.9580000000000001,0.20400000000000001,192.0,0.0,0.0,0.0,0.0,0.0,0.0,0.0,0.0,0.0,1676478417.149188,1
175,175.0,31427.0667942842,43165.957113022465,-32798.5921858063,-27488.309441603356,28971.30298272407,9271.45889657246,-23750.851899487006,-2598.256182462714,-0.056,0.96,0.202,192.0,254.0,64.0,30.0,0.0,6.0,80.0,0.0,0.0,0.0,1676478417.149213,1
176,176.0,31496.37955384011,43238.13089586865,-32818.68640407162,-27502.033412698915,28937.015406729628,9274.945768707486,-23657.287497197092,-2383.1876973137496,-0.056,0.96,0.202,192.0,0.0,0.0,0.0,0.0,0.0,0.0,0.0,0.0,0.0,1676478417.149237,1
177,177.0,31359.4527673069,43143.940644733986,-32973.36047570234,-27589.69695445263,28750.534802739003,9126.686647735434,-24209.75556489892,-3025.3980190036323,-0.056,0.96,0.202,192.0,0.0,0.0,0.0,0.0,0.0,0.0,0.0,0.0,0.0,1676478417.149262,1
178,178.0,31291.90579556296,43075.410196234014,-32963.52570814201,-27580.93507062615,28767.052741891475,9120.718731965868,-24334.031264070425,-3242.9251960426805,-0.056,0.96,0.202,192.0,0.0,0.0,0.0,0.0,0.0,0.0,0.0,0.0,0.0,1676478417.149287,1
179,179.0,31417.23202672387,43156.099993717675,-32815.26658716996,-27501.094639431794,28951.789909814586,9256.147951620575,-23836.749653428753,-2704.6951895588863,-0.056,0.96,0.202,192.0,0.0,0.0,0.0,0.0,0.0,0.0,0.0,0.0,0.0,1676478417.149312,1
180,180.0,31518.820705273236,43251.18431463055,-32788.24332812349,-27481.44745605558,28979.59547991699,9300.560867853268,-23599.217665102206,-2330.661097843778,-0.056,0.96,0.202,192.0,0.0,0.0,0.0,0.0,0.0,0.0,0.0,0.0,0.0,1676478417.149336,1
181,181.0,31406.74905857433,43177.71413060596,-32934.71430953912,-27570.45210247661,28795.75238177209,9146.087961922642,-24101.774287435328,-2898.440110497488,-0.056,0.96,0.202,192.0,0.0,0.0,0.0,0.0,0.0,0.0,0.0,0.0,0.0,1676478417.207191,1
182,182.0,31311.463571961354,43090.00588536333,-32960.1282429848,-27586.232434062058,28764.996381401586,9100.08807183362,-24353.790206168916,-3267.6685771547054,-0.056,0.96,0.202,192.0,0.0,0.0,0.0,0.0,0.0,0.0,0.0,0.0,0.0,1676478417.207231,1
183,183.0,31410.59355862064,43146.95813023545,-32827.0459564979,-27513.96924423805,28935.473136362212,9224.989619849875,-23919.607570124575,-2821.3042403822233,-0.056,0.96,0.202,192.0,0.0,0.0,0.0,0.0,0.0,0.0,0.0,0.0,0.0,1676478417.207259,1
184,184.0,31533.505801380375,43256.12405015517,-32773.804101205365,-27481.00042116647,28999.801456904588,9302.192545198506,-23580.218682315193,-2337.9701182806634,-0.056,0.96,0.202,192.0,0.0,0.0,0.0,0.0,0.0,0.0,0.0,0.0,0.0,1676478417.207284,1
185,185.0,31442.08716655817,43207.73252340943,-32926.24299839056,-27567.233451275046,28821.56864661797,9160.14720918503,-24014.28955963726,-2796.516155781288,-0.062,0.9580000000000001,0.19,192.0,254.0,16.0,29.0,240.0,5.0,240.0,0.0,0.0,0.0,1676478417.20731,1
186,186.0,31322.25946453327,43110.39067630657,-32986.391542719786,-27590.345155041836,28746.824413159422,9093.22608628584,-24376.07489539086,-3283.9629988626243,-0.062,0.9580000000000001,0.19,192.0,0.0,0.0,0.0,0.0,0.0,0.0,0.0,0.0,0.0,1676478417.207335,1
187,187.0,31388.957069987904,43139.62675805411,-32871.682390175156,-27523.714604820565,28892.177807352284,9202.973151561398,-24025.934818498474,-2935.4769510599317,-0.062,0.9580000000000001,0.19,192.0,0.0,0.0,0.0,0.0,0.0,0.0,0.0,0.0,0.0,1676478417.207359,1
188,188.0,31530.823592045737,43252.61482627569,-32781.068418153336,-27475.92657517512,28991.79953238959,9303.578353354735,-23598.323595323993,-2368.368490739881,-0.062,0.9580000000000001,0.19,192.0,0.0,0.0,0.0,0.0,0.0,0.0,0.0,0.0,0.0,1676478417.207384,1
189,189.0,31479.816911198726,43240.38842205863,-32898.34802131033,-27547.16158475418,28838.354806703905,9192.91486655651,-23914.15374447748,-2665.8478576955627,-0.062,0.9580000000000001,0.19,192.0,0.0,0.0,0.0,0.0,0.0,0.0,0.0,0.0,0.0,1676478417.207408,1
190,190.0,31340.230267075334,43130.61900503862,-32990.99600207758,-27593.384992287756,28720.516409935524,9082.586655925114,-24377.05837214689,-3258.303196227932,-0.062,0.9580000000000001,0.19,192.0,0.0,0.0,0.0,0.0,0.0,0.0,0.0,0.0,0.0,1676478417.207433,1
191,191.0,31374.160215158492,43133.30121437326,-32890.23433807306,-27532.58824736932,28840.768795105076,9165.064592965198,-24139.07934893124,-3045.715754713506,-0.062,0.9580000000000001,0.19,192.0,0.0,0.0,0.0,0.0,0.0,0.0,0.0,0.0,0.0,1676478417.207457,1
192,192.0,31519.938292496005,43245.439916305535,-32773.49117678299,-27470.942136161582,28980.333087484014,9296.761071295867,-23645.843404035975,-2431.176892659294,-0.062,0.9580000000000001,0.19,192.0,0.0,0.0,0.0,0.0,0.0,0.0,0.0,0.0,0.0,1676478417.207498,1
193,193.0,31513.590397070697,43263.58953280324,-32862.4064162262,-27518.88662801822,28878.789112423554,9228.118864073618,-23818.108298553027,-2542.26506260217,-0.062,0.9580000000000001,0.19,192.0,0.0,0.0,0.0,0.0,0.0,0.0,0.0,0.0,0.0,1676478417.207523,1
194,194.0,31362.246735363813,43145.86289475714,-32989.744304388085,-27588.109980596302,28738.710729922146,9103.552592224192,-24343.57545895284,-3190.8679832062703,-0.062,0.9580000000000001,0.19,192.0,0.0,0.0,0.0,0.0,0.0,0.0,0.0,0.0,0.0,1676478417.207548,1
195,195.0,31366.851194721607,43132.8318277397,-32910.57442552739,-27541.05955851788,28833.817402579476,9162.762363286301,-24211.83427713326,-3119.7670840939386,-0.064,0.964,0.184,192.0,254.0,0.0,30.0,32.0,5.0,192.0,0.0,0.0,0.0,1676478417.207572,1
196,196.0,31512.673975548027,43240.410773803094,-32776.21808960653,-27468.23757508249,28989.899634110887,9292.067204960253,-23686.702392900275,-2501.271963271137,-0.064,0.964,0.184,192.0,0.0,0.0,0.0,0.0,0.0,0.0,0.0,0.0,0.0,1676478417.267562,1
197,197.0,31545.821612575248,43288.2658586819,-32825.23546519702,-27502.055764443372,28916.429450086292,9259.456009799958,-23726.93553291983,-2446.0408027220733,-0.064,0.964,0.184,192.0,0.0,0.0,0.0,0.0,0.0,0.0,0.0,0.0,0.0,1676478417.267602,1
198,198.0,31394.54500610173,43176.507136405366,-32966.587897132384,-27586.366544528788,28745.483308492105,9096.064757831664,-24281.482312856,-3123.3210114623325,-0.064,0.964,0.184,192.0,0.0,0.0,0.0,0.0,0.0,0.0,0.0,0.0,0.0,1676478417.26763,1
199,199.0,31360.86092720758,43133.81530449573,-32915.357698840824,-27551.36371271178,28802.480256853138,9129.011229158787,-24275.08971394178,-3200.2110123885886,-0.064,0.964,0.184,192.0,0.0,0.0,0.0,0.0,0.0,0.0,0.0,0.0,0.0,1676478417.267656,1
200,200.0,31498.145341652078,43228.56434924178,-32768.86436568074,-27471.903261173164,28980.556604928566,9265.580387780714,-23747.409730840893,-2604.581726143566,-0.064,0.964,0.184,192.0,0.0,0.0,0.0,0.0,0.0,0.0,0.0,0.0,0.0,1676478417.267681,1
201,201.0,31562.96540057247,43293.76438781791,-32791.59608979179,-27486.409543324655,28959.34479944048,9266.541512792292,-23645.619886591423,-2379.9019908788196,-0.064,0.964,0.184,192.0,0.0,0.0,0.0,0.0,0.0,0.0,0.0,0.0,0.0,1676478417.267705,1
202,202.0,31421.232988981366,43198.657715160574,-32945.62196083331,-27572.866090877786,28773.08771289441,9120.942249410422,-24192.87999783516,-3015.9655828434925,-0.064,0.964,0.184,192.0,0.0,0.0,0.0,0.0,0.0,0.0,0.0,0.0,0.0,1676478417.26773,1
203,203.0,31346.10877586708,43126.662746270034,-32941.73275729809,-27564.037151817938,28779.860291464367,9116.024865630254,-24329.046825056892,-3245.965033288602,-0.064,0.964,0.184,192.0,0.0,0.0,0.0,0.0,0.0,0.0,0.0,0.0,0.0,1676478417.267754,1
204,204.0,31457.55457372124,43194.14266278061,-32811.55619759038,-27495.417296340143,28942.089252720983,9242.558090991746,-23858.96728741733,-2727.87394855904,-0.064,0.964,0.184,192.0,0.0,0.0,0.0,0.0,0.0,0.0,0.0,0.0,0.0,1676478417.267779,1
205,205.0,31572.129615799146,43298.70412334253,-32777.9391739296,-27473.691400729585,28969.02310478963,9293.385957883114,-23613.321615853503,-2349.525970164057,-0.058,0.964,0.182,192.0,254.0,48.0,30.0,32.0,5.0,176.0,0.0,0.0,0.0,1676478417.267803,1
206,206.0,31458.94038187747,43230.64306147612,-32929.416946103214,-27559.4550442046,28788.018678190554,9155.252177149318,-24104.031813625315,-2898.6412761975857,-0.058,0.964,0.182,192.0,0.0,0.0,0.0,0.0,0.0,0.0,0.0,0.0,0.0,1676478417.267828,1
207,207.0,31351.987284658826,43135.268167885326,-32968.10781575535,-27579.12457932527,28752.188831828695,9116.538955752725,-24366.709514464084,-3274.642321424761,-0.058,0.964,0.182,192.0,0.0,0.0,0.0,0.0,0.0,0.0,0.0,0.0,0.0,1676478417.267853,1
208,208.0,31445.529335204286,43185.8948690766,-32839.83115432634,-27509.655357558175,28915.021290185607,9223.179128548996,-23948.59778268311,-2842.4936941258543,-0.058,0.964,0.182,192.0,0.0,0.0,0.0,0.0,0.0,0.0,0.0,0.0,0.0,1676478417.267877,1
209,209.0,31577.67284842406,43298.97234427599,-32769.57962150331,-27464.77305469192,28980.35543922847,9303.332484165727,-23593.741487710657,-2345.8379323289314,-0.058,0.964,0.182,192.0,0.0,0.0,0.0,0.0,0.0,0.0,0.0,0.0,0.0,1676478417.267902,1
210,210.0,31494.211434627945,43254.5594280433,-32907.534588281465,-27541.908924807183,28811.30919591298,9171.904226768522,-24007.740498511852,-2776.868972405073,-0.058,0.964,0.182,192.0,0.0,0.0,0.0,0.0,0.0,0.0,0.0,0.0,0.0,1676478417.267926,1
211,211.0,31364.750130742807,43146.667557557535,-32979.44015019419,-27578.766951413985,28727.26663676103,9096.578847954137,-24387.29547110742,-3279.2467807825547,-0.058,0.964,0.182,192.0,0.0,0.0,0.0,0.0,0.0,0.0,0.0,0.0,0.0,1676478417.327868,1
212,212.0,31433.437041453966,43182.028017285826,-32857.77960512395,-27508.224845913035,28875.838682155452,9208.739901630868,-24048.487728653876,-2950.944358223004,-0.058,0.964,0.182,192.0,0.0,0.0,0.0,0.0,0.0,0.0,0.0,0.0,0.0,1676478417.327909,1
213,213.0,31573.24720302191,43292.40093140613,-32766.070397623826,-27455.38532202069,28990.97251784474,9314.84363256021,-23608.6724530068,-2373.554095453512,-0.058,0.964,0.182,192.0,0.0,0.0,0.0,0.0,0.0,0.0,0.0,0.0,0.0,1676478417.327941,1
214,214.0,31523.022833230836,43276.195916676035,-32885.69693394863,-27524.92159902115,28845.03797829604,9204.560125417725,-23905.816543795652,-2652.5709214891103,-0.058,0.964,0.182,192.0,0.0,0.0,0.0,0.0,0.0,0.0,0.0,0.0,0.0,1676478417.327986,1
215,215.0,31378.764674516282,43162.00085425387,-32985.94450783068,-27577.44819849112,28726.104346049353,9099.7974991557,-24378.69004949213,-3252.715260114105,-0.06,0.964,0.18,192.0,254.0,32.0,30.0,32.0,5.0,160.0,0.0,0.0,0.0,1676478417.328014,1
216,216.0,31410.2135789649,43165.86770604464,-32885.294602548434,-27519.423069885146,28849.37421672037,9187.796317076245,-24141.35922686568,-3046.431010536076,-0.06,0.964,0.18,192.0,0.0,0.0,0.0,0.0,0.0,0.0,0.0,0.0,0.0,1676478417.32804,1
217,217.0,31559.500880181895,43281.023893478385,-32762.002380132963,-27451.965505119028,28990.614889933455,9315.447129660502,-23637.05916846504,-2426.1924536457605,-0.06,0.964,0.18,192.0,0.0,0.0,0.0,0.0,0.0,0.0,0.0,0.0,0.0,1676478417.328065,1
218,218.0,31556.036359791324,43304.2697077119,-32845.3520352068,-27494.076191672826,28883.48297875917,9246.939032904987,-23800.740993111252,-2524.8530536714857,-0.06,0.964,0.18,192.0,0.0,0.0,0.0,0.0,0.0,0.0,0.0,0.0,0.0,1676478417.32809,1
219,219.0,31401.764619560796,43185.805462098775,-32971.86290882384,-27566.36173324129,28728.987721084086,9108.246458559806,-24329.985598324016,-3180.653235990195,-0.06,0.964,0.18,192.0,0.0,0.0,0.0,0.0,0.0,0.0,0.0,0.0,0.0,1676478417.328114,1
220,220.0,31399.529445115262,43161.50911587586,-32898.169207354695,-27527.73791882252,28819.199361705705,9157.867331250589,-24217.332806269267,-3131.680563888617,-0.06,0.964,0.18,192.0,0.0,0.0,0.0,0.0,0.0,0.0,0.0,0.0,0.0,1676478417.328139,1
221,221.0,31543.452327662984,43264.81887874829,-32765.176327845616,-27457.732255188497,28975.482758937214,9289.116774692151,-23700.091087829005,-2515.532376233623,-0.06,0.964,0.18,192.0,0.0,0.0,0.0,0.0,0.0,0.0,0.0,0.0,0.0,1676478417.328163,1
222,222.0,31580.176243803056,43318.66423114112,-32813.16552319116,-27484.464941557046,28910.349775594448,9268.709632004457,-23721.101727616995,-2427.0865234239727,-0.06,0.964,0.18,192.0,0.0,0.0,0.0,0.0,0.0,0.0,0.0,0.0,0.0,1676478417.328188,1
223,223.0,31428.98904430736,43207.5984129427,-32957.78130981699,-27565.445311718624,28739.53774446699,9127.401903558004,-24276.274356397913,-3092.6097145807403,-0.06,0.964,0.18,192.0,0.0,0.0,0.0,0.0,0.0,0.0,0.0,0.0,0.0,1676478417.328212,1
224,224.0,31393.82975027916,43160.23506644191,-32916.542341296954,-27536.92448579365,28791.818474747954,9151.340621869638,-24288.18783619259,-3187.984608171536,-0.062,0.966,0.182,192.0,254.0,16.0,30.0,48.0,5.0,176.0,0.0,0.0,0.0,1676478417.328237,1
225,225.0,31528.364900155655,43252.36895708668,-32770.361932559244,-27455.452377254056,28972.35351471347,9295.330559650727,-23763.50298684871,-2596.356284184013,-0.062,0.966,0.182,192.0,0.0,0.0,0.0,0.0,0.0,0.0,0.0,0.0,0.0,1676478417.328261,1
226,226.0,31596.44831376652,43323.0228213099,-32787.01398217845,-27464.683647714097,28946.045511489574,9303.310132421271,-23654.44882565127,-2361.864133103387,-0.062,0.966,0.182,192.0,0.0,0.0,0.0,0.0,0.0,0.0,0.0,0.0,0.0,1676478417.388067,1
227,227.0,31453.687721930473,43224.63044221765,-32949.84644053536,-27554.69412263562,28752.904087651266,9140.544729297726,-24206.715727652994,-2998.508870423898,-0.062,0.966,0.182,192.0,0.0,0.0,0.0,0.0,0.0,0.0,0.0,0.0,0.0,1676478417.388107,1
228,228.0,31374.987229703336,43148.50040060287,-32950.96402775813,-27551.36371271178,28762.805910444968,9128.56419426968,-24351.845604401304,-3245.629757121773,-0.062,0.966,0.182,192.0,0.0,0.0,0.0,0.0,0.0,0.0,0.0,0.0,0.0,1676478417.388135,1
229,229.0,31494.390248583586,43224.56338698428,-32803.88954924221,-27475.144264119182,28945.754938811653,9257.98079466591,-23863.415284563933,-2724.3647246795567,-0.062,0.966,0.182,192.0,0.0,0.0,0.0,0.0,0.0,0.0,0.0,0.0,0.0,1676478417.38816,1
230,230.0,31596.381258533154,43315.31146947283,-32781.627211764724,-27463.476653513513,28962.742264597688,9297.677492818535,-23623.33519736948,-2340.361754937381,-0.062,0.966,0.182,192.0,0.0,0.0,0.0,0.0,0.0,0.0,0.0,0.0,0.0,1676478417.388184,1
231,231.0,31482.722637977917,43245.17169537207,-32933.01557696052,-27548.16741325467,28769.109102381364,9157.57675857267,-24114.045395141293,-2887.5548109477536,-0.062,0.966,0.182,192.0,0.0,0.0,0.0,0.0,0.0,0.0,0.0,0.0,0.0,1676478417.388209,1
232,232.0,31379.34581987212,43150.556761092754,-32961.13407148529,-27561.958439583595,28734.26273277554,9116.516604008271,-24371.35867731079,-3270.037862066968,-0.062,0.966,0.182,192.0,0.0,0.0,0.0,0.0,0.0,0.0,0.0,0.0,0.0,1676478417.388234,1
233,233.0,31467.031713370292,43196.713113392965,-32831.51630538896,-27495.14907540668,28893.67537423079,9229.549375718758,-23956.666762431476,-2843.7230400708963,-0.062,0.966,0.182,192.0,0.0,0.0,0.0,0.0,0.0,0.0,0.0,0.0,0.0,1676478417.388258,1
234,234.0,31589.653383452107,43296.73716983046,-32768.260868580444,-27461.71086570154,28965.759750099154,9309.45686214648,-23599.418830802304,-2340.3170514484705,-0.062,0.962,0.19,192.0,254.0,16.0,30.0,16.0,5.0,240.0,0.0,0.0,0.0,1676478417.388283,1
235,235.0,31503.75562951036,43251.13961114164,-32907.266367348,-27547.496860921012,28799.50747484058,9176.732203570868,-23999.783277485763,-2761.066289075171,-0.062,0.962,0.19,192.0,0.0,0.0,0.0,0.0,0.0,0.0,0.0,0.0,0.0,1676478417.388323,1
236,236.0,31380.575165817165,43151.65199657107,-32969.98536228959,-27573.89427112273,28726.037290815984,9101.94326662341,-24375.471398290563,-3269.367309733309,-0.062,0.962,0.19,192.0,0.0,0.0,0.0,0.0,0.0,0.0,0.0,0.0,0.0,1676478417.388348,1
237,237.0,31435.51575368831,43173.91433404855,-32856.39379696772,-27507.330776134822,28865.17690005027,9208.985770819876,-24049.85118506565,-2952.8442565017053,-0.062,0.962,0.19,192.0,0.0,0.0,0.0,0.0,0.0,0.0,0.0,0.0,0.0,1676478417.388373,1
238,238.0,31575.996467589914,43282.499108612436,-32760.52716499891,-27453.328961530802,28975.750979870678,9315.581240127236,-23601.855170947932,-2369.106098306906,-0.062,0.962,0.19,192.0,0.0,0.0,0.0,0.0,0.0,0.0,0.0,0.0,0.0,1676478417.388397,1
239,239.0,31531.807068801772,43267.70225378302,-32880.511329235,-27523.468735631555,28830.41993742227,9212.003256321343,-23899.736869303808,-2629.6603834224206,-0.062,0.962,0.19,192.0,0.0,0.0,0.0,0.0,0.0,0.0,0.0,0.0,0.0,1676478417.388422,1
240,240.0,31388.64414556553,43155.42944138401,-32982.36822871783,-27574.520119967478,28708.267653974017,9110.772205683257,-24378.801808214404,-3235.616175605795,-0.062,0.962,0.19,192.0,0.0,0.0,0.0,0.0,0.0,0.0,0.0,0.0,0.0,1676478417.388447,1
241,241.0,31413.566340633195,43154.80359253926,-32885.69693394863,-27520.04891872989,28830.151716488806,9189.562104888213,-24147.818881013263,-3044.464057024009,-0.062,0.962,0.19,192.0,0.0,0.0,0.0,0.0,0.0,0.0,0.0,0.0,0.0,1676478417.448516,1
242,242.0,31555.544621413308,43263.52247756988,-32771.09954012627,-27461.95673489055,28972.86760483594,9304.830051044233,-23648.34679941497,-2432.2944798820595,-0.062,0.962,0.19,192.0,0.0,0.0,0.0,0.0,0.0,0.0,0.0,0.0,0.0,1676478417.448557,1
243,243.0,31550.4484236775,43286.7682918034,-32858.96424758009,-27516.182066939124,28868.61906869639,9238.646535712069,-23806.46303969181,-2524.271908315648,-0.062,0.962,0.19,192.0,0.0,0.0,0.0,0.0,0.0,0.0,0.0,0.0,0.0,1676478417.448585,1
244,244.0,31391.773389789272,43165.24185719989,-32991.82301662243,-27591.440390520143,28718.482401190093,9105.720711436357,-24342.212002541066,-3184.8330122033376,-0.064,0.966,0.186,192.0,254.0,0.0,30.0,48.0,5.0,208.0,0.0,0.0,0.0,1676478417.448611,1
245,245.0,31387.97359323187,43140.67729004351,-32920.76682099901,-27551.184898756135,28806.704736555188,9162.158866186008,-24235.571829744797,-3144.9351483506143,-0.064,0.966,0.186,192.0,0.0,0.0,0.0,0.0,0.0,0.0,0.0,0.0,0.0,1676478417.448635,1
246,246.0,31535.115126981156,43246.11046863919,-32781.38134257571,-27475.278374585912,28972.934660069306,9287.149821180084,-23710.05996585607,-2526.954117650285,-0.064,0.966,0.186,192.0,0.0,0.0,0.0,0.0,0.0,0.0,0.0,0.0,0.0,1676478417.44866,1
247,247.0,31570.743807642917,43291.03747499436,-32832.61154086728,-27503.732145277518,28906.259406359128,9255.142123120086,-23725.370910807957,-2439.044706707562,-0.064,0.966,0.186,192.0,0.0,0.0,0.0,0.0,0.0,0.0,0.0,0.0,0.0,1676478417.448685,1
248,248.0,31419.042518024748,43185.98427605442,-32978.30021122697,-27579.817483403385,28729.21123852864,9119.109406365085,-24284.410391379643,-3099.3152379173325,-0.064,0.966,0.186,192.0,0.0,0.0,0.0,0.0,0.0,0.0,0.0,0.0,0.0,1676478417.448709,1
249,249.0,31372.886165724536,43134.418801596024,-32945.51020211103,-27555.364674969278,28769.22086110364,9140.298860108716,-24312.797106837883,-3200.4792333220526,-0.064,0.966,0.186,192.0,0.0,0.0,0.0,0.0,0.0,0.0,0.0,0.0,0.0,1676478417.448734,1
250,250.0,31506.437838845,43225.658622462586,-32799.97799396253,-27474.183139107605,28949.845308046977,9274.856361729666,-23789.878045305974,-2618.0821797945714,-0.064,0.966,0.186,192.0,0.0,0.0,0.0,0.0,0.0,0.0,0.0,0.0,0.0,1676478417.448759,1
251,251.0,31579.125711813656,43299.64289660966,-32806.504703343475,-27477.737066476,28934.802584028555,9286.702786290978,-23656.460482652248,-2353.9069120772974,-0.064,0.966,0.186,192.0,0.0,0.0,0.0,0.0,0.0,0.0,0.0,0.0,0.0,1676478417.448783,1
252,252.0,31437.08037580018,43200.08822680572,-32969.09129251138,-27572.866090877786,28739.940075867187,9129.033580903242,-24208.97325384298,-2991.2892569648334,-0.064,0.966,0.186,192.0,0.0,0.0,0.0,0.0,0.0,0.0,0.0,0.0,0.0,1676478417.448808,1
253,253.0,31360.01156091828,43123.9805369354,-32971.54998440146,-27573.380181000255,28741.39293925678,9115.04138887422,-24375.180825612646,-3260.02428055099,-0.064,0.966,0.186,192.0,0.0,0.0,0.0,0.0,0.0,0.0,0.0,0.0,0.0,1676478417.448833,1
254,254.0,31477.13470186409,43198.814177371765,-32829.9516832771,-27494.00913643946,28917.927016964797,9246.268480571327,-23892.58431107811,-2738.7815998532296,-0.062,0.97,0.188,192.0,254.0,16.0,30.0,80.0,5.0,224.0,0.0,0.0,0.0,1676478417.448858,1
255,255.0,31584.691296183028,43296.62541110819,-32795.28412762691,-27473.40082805167,28955.16502322734,9299.733853308422,-23628.29728463856,-2332.538644378024,-0.062,0.97,0.188,192.0,0.0,0.0,0.0,0.0,0.0,0.0,0.0,0.0,0.0,1676478417.448882,1
256,0.0,31471.09973086116,43226.73150619644,-32950.69580682466,-27565.378256485255,28776.55223328498,9147.406714845505,-24118.605151010175,-2879.1282032881027,-0.062,0.97,0.188,192.0,0.0,0.0,0.0,0.0,0.0,0.0,0.0,0.0,0.0,1676478417.507733,1
257,1.0,31363.811357475683,43130.216673638424,-32985.832749108406,-27580.33157352586,28733.59218044188,9111.599220228103,-24394.425677588664,-3272.228333023588,-0.062,0.97,0.188,192.0,0.0,0.0,0.0,0.0,0.0,0.0,0.0,0.0,0.0,1676478417.507774,1
258,2.0,31455.98995160937,43180.06106377376,-32847.94483756362,-27503.39686911069,28904.985356925175,9234.802035665756,-23974.03406787325,-2849.5791971181866,-0.062,0.97,0.188,192.0,0.0,0.0,0.0,0.0,0.0,0.0,0.0,0.0,0.0,1676478417.507802,1
259,3.0,31585.76417991688,43289.9198877716,-32779.07911289681,-27457.82166216632,28983.79760787459,9314.217783715461,-23603.308034337526,-2327.978888509141,-0.062,0.97,0.188,192.0,0.0,0.0,0.0,0.0,0.0,0.0,0.0,0.0,0.0,1676478417.507828,1
260,4.0,31507.86835049014,43248.97149192947,-32916.43058257468,-27535.91865729316,28817.45592563819,9193.183087489973,-23997.101068151125,-2725.6834776024198,-0.062,0.97,0.188,192.0,0.0,0.0,0.0,0.0,0.0,0.0,0.0,0.0,0.0,1676478417.507853,1
261,5.0,31375.747189014815,43135.87166498562,-32988.64906890978,-27576.956460113106,28732.318131007927,9112.292124306217,-24390.849398475817,-3247.619062378295,-0.062,0.97,0.188,192.0,0.0,0.0,0.0,0.0,0.0,0.0,0.0,0.0,0.0,1676478417.507877,1
262,6.0,31440.254323512832,43168.92989503502,-32864.93216334965,-27502.21222665456,28882.343039791947,9216.786529634777,-24060.848243337663,-2934.7169917484516,-0.062,0.97,0.188,192.0,0.0,0.0,0.0,0.0,0.0,0.0,0.0,0.0,0.0,1676478417.507902,1
263,7.0,31585.518310727875,43287.036512736864,-32763.119967355728,-27444.00828409294,29002.953052872785,9324.253716975894,-23602.48101979268,-2343.334536949937,-0.062,0.97,0.188,192.0,0.0,0.0,0.0,0.0,0.0,0.0,0.0,0.0,0.0,1676478417.507927,1
264,8.0,31542.267685206854,43277.447614365534,-32878.43261700065,-27515.98090123903,28857.57730693547,9219.44638722496,-23884.40357260747,-2598.099720251527,-0.062,0.966,0.188,192.0,254.0,16.0,30.0,48.0,5.0,224.0,0.0,0.0,0.0,1676478417.507952,1
265,9.0,31391.616927578085,43160.72680481992,-32984.782217119006,-27573.044904833427,28728.428927472705,9109.006417871287,-24369.548186009906,-3215.097274195823,-0.062,0.966,0.188,192.0,0.0,0.0,0.0,0.0,0.0,0.0,0.0,0.0,0.0,1676478417.507976,1
266,10.0,31410.66061385401,43151.09320295968,-32895.2634805755,-27524.809840298873,28840.56762940498,9181.537828628758,-24155.91021250608,-3039.7031354550286,-0.062,0.966,0.188,192.0,0.0,0.0,0.0,0.0,0.0,0.0,0.0,0.0,0.0,1676478417.508001,1
267,11.0,31559.970266815457,43264.43889909254,-32768.64084823619,-27454.692417942577,28985.943375342296,9308.585144112723,-23643.809395290544,-2411.8649854499085,-0.062,0.966,0.188,192.0,0.0,0.0,0.0,0.0,0.0,0.0,0.0,0.0,0.0,1676478417.508026,1
268,12.0,31554.650551635095,43283.32612315728,-32851.72228237656,-27502.078116187826,28882.00776362512,9255.320937075727,-23788.291071449647,-2479.389605449391,-0.062,0.966,0.188,192.0,0.0,0.0,0.0,0.0,0.0,0.0,0.0,0.0,0.0,1676478417.508051,1
269,13.0,31403.39629690603,43172.4391189145,-32979.03781879399,-27571.41322748819,28730.373529240314,9114.147319096008,-24325.269380243946,-3145.4715902175417,-0.062,0.966,0.188,192.0,0.0,0.0,0.0,0.0,0.0,0.0,0.0,0.0,0.0,1676478417.508075,1
270,14.0,31393.852102023615,43143.44890635597,-32914.08364940687,-27532.07415724685,28810.593940090414,9159.946043484932,-24230.14035584216,-3112.435711912598,-0.062,0.966,0.188,192.0,0.0,0.0,0.0,0.0,0.0,0.0,0.0,0.0,0.0,1676478417.5081,1
271,15.0,31537.260894448867,43243.13768662664,-32778.609726263254,-27456.279391798904,28972.35351471347,9299.800908541789,-23701.231026796228,-2486.2515909971703,-0.062,0.966,0.188,192.0,0.0,0.0,0.0,0.0,0.0,0.0,0.0,0.0,0.0,1676478417.568018,1
272,16.0,31574.63301117814,43293.607925606724,-32821.56977910636,-27483.548520034376,28917.994072198162,9276.555094308269,-23703.153276819383,-2378.0691478334843,-0.062,0.966,0.188,192.0,0.0,0.0,0.0,0.0,0.0,0.0,0.0,0.0,0.0,1676478417.56806,1
273,17.0,31419.713070358404,43186.65482838808,-32970.454748923155,-27567.99341058653,28745.997398614574,9123.400941300504,-24265.478463826,-3049.537903015364,-0.062,0.966,0.188,192.0,0.0,0.0,0.0,0.0,0.0,0.0,0.0,0.0,0.0,1676478417.568088,1
274,18.0,31368.795796489216,43127.10978115914,-32940.95044624215,-27545.909887064685,28772.283050094018,9141.14822639802,-24305.041051511893,-3173.9253609091475,-0.058,0.964,0.188,192.0,254.0,48.0,30.0,32.0,5.0,224.0,0.0,0.0,0.0,1676478417.568115,1
275,19.0,31500.313460864243,43220.80829391578,-32796.06643868285,-27465.5330140034,28944.34677891097,9278.07501293123,-23787.55346388262,-2589.22607770277,-0.058,0.964,0.188,192.0,0.0,0.0,0.0,0.0,0.0,0.0,0.0,0.0,0.0,1676478417.56814,1
276,20.0,31583.68546768254,43303.532100144876,-32799.55331081788,-27464.10250235826,28938.088290463485,9294.257675916871,-23645.888107524886,-2309.6504580557894,-0.058,0.964,0.188,192.0,0.0,0.0,0.0,0.0,0.0,0.0,0.0,0.0,0.0,1676478417.568164,1
277,21.0,31445.50698345983,43206.45847397548,-32956.35079817186,-27558.180994770646,28748.38903527129,9135.515586795282,-24182.46408491899,-2938.472084816943,-0.058,0.964,0.188,192.0,0.0,0.0,0.0,0.0,0.0,0.0,0.0,0.0,0.0,1676478417.568189,1
278,22.0,31369.578107545152,43131.624833539114,-32952.70746382564,-27551.587230156332,28751.630038217314,9127.46895879137,-24338.970999595047,-3208.0341229479463,-0.058,0.964,0.188,192.0,0.0,0.0,0.0,0.0,0.0,0.0,0.0,0.0,0.0,1676478417.568231,1
279,23.0,31482.2308995999,43201.74225589541,-32812.6961365576,-27479.167578121138,28924.38667111238,9252.30345157426,-23870.00904917825,-2703.15291919147,-0.058,0.964,0.188,192.0,0.0,0.0,0.0,0.0,0.0,0.0,0.0,0.0,0.0,1676478417.568256,1
280,24.0,31583.886633382637,43294.591402362756,-32778.609726263254,-27461.755569190453,28957.377845928415,9300.31499866426,-23602.257502348126,-2289.511536301558,-0.058,0.964,0.188,192.0,0.0,0.0,0.0,0.0,0.0,0.0,0.0,0.0,0.0,1676478417.568281,1
281,25.0,31476.575908252707,43231.045392876316,-32924.097230922845,-27544.88170681974,28780.061457164462,9162.449438863927,-24075.488635955888,-2815.2916211237457,-0.058,0.964,0.188,192.0,0.0,0.0,0.0,0.0,0.0,0.0,0.0,0.0,0.0,1676478417.568305,1
282,26.0,31363.051398164203,43131.44601958347,-32969.31480995593,-27566.54054719693,28734.240381031083,9102.725577679346,-24369.525834265452,-3232.8892627822474,-0.058,0.964,0.188,192.0,0.0,0.0,0.0,0.0,0.0,0.0,0.0,0.0,0.0,1676478417.56833,1
283,27.0,31447.093957316156,43178.183517239515,-32842.49101191652,-27496.24431088499,28895.217644598204,9219.178166291496,-23966.03214335825,-2819.1361211700587,-0.058,0.964,0.188,192.0,0.0,0.0,0.0,0.0,0.0,0.0,0.0,0.0,0.0,1676478417.568355,1
284,28.0,31571.414359976574,43281.35916964521,-32774.96639191704,-27452.30078128586,28971.30298272407,9319.269277962361,-23587.460647518714,-2280.861411197354,-0.06,0.97,0.186,192.0,254.0,32.0,30.0,80.0,5.0,208.0,0.0,0.0,0.0,1676478417.56838,1
285,29.0,31489.74108573688,43240.07549763626,-32919.80569598743,-27537.662093360675,28792.04199219251,9189.33858744366,-23984.785256956253,-2679.5718287911213,-0.06,0.97,0.186,192.0,0.0,0.0,0.0,0.0,0.0,0.0,0.0,0.0,0.0,1676478417.568404,1
286,30.0,31360.3021335962,43136.29634813027,-32995.131074801815,-27571.994372844027,28695.258938701027,9108.671141704457,-24387.518988551976,-3218.5394428419404,-0.06,0.97,0.186,192.0,0.0,0.0,0.0,0.0,0.0,0.0,0.0,0.0,0.0,1676478417.627841,1
287,31.0,31415.93562554546,43157.284636173805,-32882.143006580234,-27510.504723847476,28834.845582824422,9205.63300915158,-24072.85113011016,-2923.697581731985,-0.06,0.97,0.186,192.0,0.0,0.0,0.0,0.0,0.0,0.0,0.0,0.0,0.0,1676478417.627883,1
288,32.0,31558.472699936952,43270.94325672904,-32781.403694320165,-27457.039351110383,28955.321485438526,9318.263449461872,-23613.634540275878,-2324.402609396292,-0.06,0.97,0.186,192.0,0.0,0.0,0.0,0.0,0.0,0.0,0.0,0.0,0.0,1676478417.627914,1
289,33.0,31512.80808601476,43259.141535656636,-32900.13616086676,-27530.844811301806,28811.778582546543,9214.685465655979,-23888.20336916487,-2563.1862954123376,-0.06,0.97,0.186,192.0,0.0,0.0,0.0,0.0,0.0,0.0,0.0,0.0,0.0,1676478417.627943,1
290,34.0,31363.230212119845,43146.68990930199,-33006.664574940754,-27585.092495094836,28692.621432855303,9100.80332765619,-24371.381029055243,-3184.5424395254186,-0.06,0.97,0.186,192.0,0.0,0.0,0.0,0.0,0.0,0.0,0.0,0.0,0.0,1676478417.627973,1
291,35.0,31389.627622321565,43143.47125810043,-32909.94857668264,-27526.01683449946,28811.644472079814,9176.039299492753,-24155.396122383612,-3013.2833735088557,-0.06,0.97,0.186,192.0,0.0,0.0,0.0,0.0,0.0,0.0,0.0,0.0,0.0,1676478417.628002,1
292,36.0,31538.736109582915,43250.64787276362,-32789.27150836844,-27461.509700001443,28960.35062794097,9298.303341663282,-23653.5324041286,-2392.2625055626045,-0.06,0.97,0.186,192.0,0.0,0.0,0.0,0.0,0.0,0.0,0.0,0.0,0.0,1676478417.628031,1
293,37.0,31532.38821415761,43263.678939781064,-32880.93601237965,-27521.390023397213,28852.078777799463,9228.767064662823,-23801.120972766992,-2458.0883929834836,-0.062,0.962,0.184,192.0,254.0,16.0,30.0,16.0,5.0,192.0,0.0,0.0,0.0,1676478417.62806,1
294,38.0,31384.039686207736,43155.25062742837,-33009.34678427539,-27585.584233472855,28690.25214794304,9101.13860382302,-24337.227563527533,-3125.913813819148,-0.062,0.962,0.184,192.0,0.0,0.0,0.0,0.0,0.0,0.0,0.0,0.0,0.0,1676478417.628089,1
295,39.0,31374.83076749215,43126.84156022568,-32944.25850442154,-27540.07608176185,28762.40357904477,9153.933424226454,-24246.859460694726,-3100.5892873512853,-0.062,0.962,0.184,192.0,0.0,0.0,0.0,0.0,0.0,0.0,0.0,0.0,0.0,1676478417.628118,1
296,40.0,31515.222074415935,43226.23976781843,-32813.16552319116,-27470.003362894462,28926.48773509118,9282.567713566747,-23722.666349728865,-2477.690872870788,-0.062,0.962,0.184,192.0,0.0,0.0,0.0,0.0,0.0,0.0,0.0,0.0,0.0,1676478417.628147,1
297,41.0,31562.54071742782,43286.99180924795,-32858.8524888578,-27493.450342828077,28875.10107458843,9262.629957512612,-23714.77618393614,-2356.007976056096,-0.062,0.962,0.184,192.0,0.0,0.0,0.0,0.0,0.0,0.0,0.0,0.0,0.0,1676478417.628176,1
298,42.0,31415.13096274507,43186.5430696658,-33006.41870575174,-27569.669791420674,28715.710784877636,9116.650714475003,-24269.099446427757,-3023.9675073584926,-0.062,0.962,0.184,192.0,0.0,0.0,0.0,0.0,0.0,0.0,0.0,0.0,0.0,1676478417.628204,1
299,43.0,31371.366247101578,43134.910539974044,-32973.71810361363,-27542.177145740647,28765.64458199079,9134.018019916775,-24313.53471440491,-3155.14989556669,-0.062,0.962,0.184,192.0,0.0,0.0,0.0,0.0,0.0,0.0,0.0,0.0,0.0,1676478417.628249,1
300,44.0,31508.829475501716,43227.335003296736,-32826.33070067534,-27457.642848210675,28939.228229430704,9273.761126251356,-23796.09183026455,-2572.037586216639,-0.062,0.962,0.184,192.0,0.0,0.0,0.0,0.0,0.0,0.0,0.0,0.0,0.0,1676478417.628275,1
301,45.0,31580.466816480974,43296.80422506383,-32839.36176769278,-27465.756531447954,28926.755956024645,9287.50744909137,-23647.296267425572,-2287.008140922563,-0.062,0.962,0.184,192.0,0.0,0.0,0.0,0.0,0.0,0.0,0.0,0.0,0.0,1676478417.689162,1
302,46.0,31450.200849795445,43211.68878217802,-32999.467313226145,-27553.911811579685,28742.86815439083,9135.180310628451,-24183.849893075218,-2912.901689160072,-0.062,0.962,0.184,192.0,0.0,0.0,0.0,0.0,0.0,0.0,0.0,0.0,0.0,1676478417.689201,1
303,47.0,31373.44495933592,43142.465429599935,-33002.261281283056,-27538.846735816805,28741.571753212425,9121.210470343885,-24355.48893874752,-3198.0205414319685,-0.082,0.9580000000000001,0.182,192.0,253.0,112.0,29.0,240.0,5.0,176.0,0.0,0.0,0.0,1676478417.689229,1
304,48.0,31486.0306961573,43213.432218245536,-32857.31021849039,-27457.642848210675,28917.859961731432,9258.047849899274,-23875.887557969996,-2686.6349800389985,-0.082,0.9580000000000001,0.182,192.0,0.0,0.0,0.0,0.0,0.0,0.0,0.0,0.0,0.0,1676478417.689255,1
305,49.0,31597.588252733738,43312.74101886046,-32820.38513665022,-27436.743967144965,28955.366188927437,9307.624019101146,-23593.205045843726,-2262.6894429551894,-0.082,0.9580000000000001,0.182,192.0,0.0,0.0,0.0,0.0,0.0,0.0,0.0,0.0,0.0,1676478417.68928,1
306,50.0,31487.841187458183,43242.578893015256,-32976.62383039282,-27526.35211066629,28768.863233192355,9162.918825497487,-24076.606223178653,-2791.062330134193,-0.082,0.9580000000000001,0.182,192.0,0.0,0.0,0.0,0.0,0.0,0.0,0.0,0.0,0.0,1676478417.689305,1
307,51.0,31376.216575648377,43146.667557557535,-33013.10187734388,-27536.92448579365,28719.39882271276,9126.016095401776,-24372.364505811278,-3202.557945556396,-0.082,0.9580000000000001,0.182,192.0,0.0,0.0,0.0,0.0,0.0,0.0,0.0,0.0,0.0,1676478417.689329,1
308,52.0,31468.529280248797,43200.199985527994,-32866.09445406133,-27456.212336565535,28893.7200777197,9247.721343960922,-23955.97385835336,-2786.8825539210507,-0.082,0.9580000000000001,0.182,192.0,0.0,0.0,0.0,0.0,0.0,0.0,0.0,0.0,0.0,1676478417.689354,1
309,53.0,31599.599909734716,43306.92956530208,-32788.891528712695,-27419.13079251418,28983.082352052017,9332.99324905792,-23562.158472795305,-2260.92365514322,-0.082,0.9580000000000001,0.182,192.0,0.0,0.0,0.0,0.0,0.0,0.0,0.0,0.0,0.0,1676478417.689378,1
310,54.0,31521.90524600807,43268.48456483896,-32928.09819318035,-27506.48140984552,28816.18187620424,9201.162660260517,-23948.7542448943,-2659.544665759166,-0.082,0.9580000000000001,0.182,192.0,0.0,0.0,0.0,0.0,0.0,0.0,0.0,0.0,0.0,1676478417.689402,1
311,55.0,31390.25347116631,43160.413880397544,-33005.412877251256,-27544.479375419545,28714.883770332788,9117.365970297573,-24366.888328419725,-3199.004018188002,-0.082,0.9580000000000001,0.182,192.0,0.0,0.0,0.0,0.0,0.0,0.0,0.0,0.0,0.0,1676478417.689427,1
312,56.0,31446.98219859388,43185.64899988759,-32879.8631286458,-27469.48927277199,28869.021400096586,9227.15773906204,-24037.75889131533,-2891.6228284386193,-0.082,0.9580000000000001,0.182,192.0,0.0,0.0,0.0,0.0,0.0,0.0,0.0,0.0,0.0,1676478417.689452,1
313,57.0,31600.091648112735,43305.3202397013,-32762.784691188896,-27401.383507416667,29006.730497685734,9344.817321874776,-23542.667751630277,-2278.805050707466,-0.084,0.966,0.188,192.0,253.0,96.0,30.0,48.0,5.0,224.0,0.0,0.0,0.0,1676478417.689477,1
314,58.0,31569.58151693124,43305.074370512295,-32869.89425061873,-27464.81775818083,28865.512176217104,9250.560015506748,-23799.601054144034,-2501.3390185045027,-0.084,0.966,0.188,192.0,0.0,0.0,0.0,0.0,0.0,0.0,0.0,0.0,0.0,1676478417.689501,1
315,59.0,31420.718898858893,43186.83364234372,-32980.9824205616,-27527.31323567787,28723.288026247985,9130.374685570561,-24303.074097999826,-3139.3919157256983,-0.084,0.966,0.188,192.0,0.0,0.0,0.0,0.0,0.0,0.0,0.0,0.0,0.0,1676478417.689526,1
316,60.0,31443.0706433142,43180.95513355197,-32882.858262402806,-27473.24436584048,28858.583135435958,9207.801128363744,-24100.410831023557,-2986.2377627179344,-0.084,0.966,0.188,192.0,0.0,0.0,0.0,0.0,0.0,0.0,0.0,0.0,0.0,1676478417.748508,1
317,61.0,31600.091648112735,43301.162815232616,-32745.68560668059,-27402.612853361712,29024.25426533869,9337.530653182346,-23580.442199759746,-2360.8359528584424,-0.084,0.966,0.188,192.0,0.0,0.0,0.0,0.0,0.0,0.0,0.0,0.0,0.0,1676478417.748547,1
318,62.0,31608.071220883277,43331.20355978055,-32816.585340092824,-27450.42323475161,28932.410947371834,9275.996300696886,-23699.956977362275,-2406.880546436375,-0.084,0.966,0.188,192.0,0.0,0.0,0.0,0.0,0.0,0.0,0.0,0.0,0.0,1676478417.748575,1
319,63.0,31452.950114363448,43217.41082875858,-32950.584048102384,-27527.31323567787,28772.17129137174,9137.795464729723,-24242.85849843723,-3085.010121465936,-0.084,0.966,0.188,192.0,0.0,0.0,0.0,0.0,0.0,0.0,0.0,0.0,0.0,1676478417.748602,1
320,64.0,31430.106631530125,43179.34580795119,-32892.022477629485,-27493.472694572534,28839.584152648946,9194.993578790854,-24168.561299867786,-3074.303635871844,-0.084,0.966,0.188,192.0,0.0,0.0,0.0,0.0,0.0,0.0,0.0,0.0,0.0,1676478417.748642,1
321,65.0,31569.939144842527,43279.25810566641,-32754.71571144053,-27424.785783861375,29005.210579062772,9324.32077220926,-23645.262258680137,-2455.1603144598384,-0.084,0.966,0.188,192.0,0.0,0.0,0.0,0.0,0.0,0.0,0.0,0.0,0.0,1676478417.748667,1
322,66.0,31608.808828450303,43330.801228380355,-32797.5416538169,-27449.596220206764,28950.895840036374,9294.660007317068,-23623.20108690275,-2320.8710337723537,-0.084,0.966,0.188,192.0,0.0,0.0,0.0,0.0,0.0,0.0,0.0,0.0,0.0,1676478417.748692,1
323,67.0,31451.56430620722,43221.65766020509,-32951.23224869159,-27536.030416015437,28757.26267782005,9139.069514163675,-24184.162817497592,-2994.954943055504,-0.068,0.9540000000000001,0.186,192.0,253.0,224.0,29.0,208.0,5.0,208.0,0.0,0.0,0.0,1676478417.748717,1
324,68.0,31394.097971212625,43162.045557742786,-32927.85232399134,-27520.518305363454,28779.904994953275,9146.66910727848,-24249.496966540453,-3154.2781775329327,-0.068,0.9540000000000001,0.186,192.0,0.0,0.0,0.0,0.0,0.0,0.0,0.0,0.0,0.0,1676478417.748742,1
325,69.0,31517.14432443909,43241.61776800368,-32787.81864497884,-27447.741025416974,28942.06690097653,9280.712518776956,-23742.492347060725,-2580.061862476094,-0.068,0.9540000000000001,0.186,192.0,0.0,0.0,0.0,0.0,0.0,0.0,0.0,0.0,0.0,1676478417.748766,1
326,70.0,31591.642688708627,43313.29981247185,-32795.30647937137,-27457.508737743945,28930.33223513749,9297.252809673882,-23586.81244692951,-2279.6544169967674,-0.068,0.9540000000000001,0.186,192.0,0.0,0.0,0.0,0.0,0.0,0.0,0.0,0.0,0.0,1676478417.748791,1
327,71.0,31465.288277302778,43228.00555563039,-32945.10787071084,-27542.624180629755,28753.865212662844,9144.389229344039,-24113.710118974464,-2895.824956396217,-0.068,0.9540000000000001,0.186,192.0,0.0,0.0,0.0,0.0,0.0,0.0,0.0,0.0,0.0,1676478417.748815,1
328,72.0,31371.433302334943,43132.54125506178,-32961.75992033004,-27556.348151725313,28734.754471153556,9112.537993495225,-24309.91373180315,-3205.4413205911305,-0.068,0.9540000000000001,0.186,192.0,0.0,0.0,0.0,0.0,0.0,0.0,0.0,0.0,0.0,1676478417.74884,1
329,73.0,31477.89466117557,43199.75295063889,-32826.26364544197,-27484.599052023776,28900.693821989757,9236.321954288716,-23855.793339704676,-2713.769997807741,-0.068,0.9540000000000001,0.186,192.0,0.0,0.0,0.0,0.0,0.0,0.0,0.0,0.0,0.0,1676478417.748865,1
330,74.0,31586.747656672916,43297.318315186305,-32789.15974964616,-27465.130682603205,28939.362339897438,9289.139126436607,-23572.6637926893,-2274.692329727689,-0.068,0.9540000000000001,0.186,192.0,0.0,0.0,0.0,0.0,0.0,0.0,0.0,0.0,0.0,1676478417.74889,1
331,75.0,31472.396132039565,43228.92197715306,-32941.71040555363,-27559.902079093707,28752.389997528793,9144.165711899484,-24047.213679219924,-2797.343170326134,-0.068,0.9540000000000001,0.186,192.0,0.0,0.0,0.0,0.0,0.0,0.0,0.0,0.0,0.0,1676478417.808731,1
332,76.0,31348.522764268255,43122.34885959016,-32993.76761839004,-27586.478303251068,28697.695278846655,9087.235818771818,-24361.85918591728,-3232.5763383598733,-0.068,0.9540000000000001,0.186,192.0,0.0,0.0,0.0,0.0,0.0,0.0,0.0,0.0,0.0,1676478417.808771,1
333,77.0,31433.682910642972,43171.477993902925,-32862.49582320402,-27511.354090136778,28860.773606392577,9204.291904484262,-23969.65312596001,-2829.3508683861337,-0.05,0.962,0.19,192.0,254.0,112.0,30.0,16.0,5.0,240.0,0.0,0.0,0.0,1676478417.808799,1
334,78.0,31560.551412171295,43278.25227716593,-32787.90805195666,-27470.360990805744,28940.278761420104,9293.251847416383,-23574.451932245724,-2282.2695710980383,-0.05,0.962,0.19,192.0,0.0,0.0,0.0,0.0,0.0,0.0,0.0,0.0,0.0,1676478417.808825,1
335,79.0,31484.08609438969,43236.16394235658,-32920.96798669911,-27548.59209639932,28780.016753675554,9169.914921512,-23935.522012176756,-2649.5310842431886,-0.05,0.962,0.19,192.0,0.0,0.0,0.0,0.0,0.0,0.0,0.0,0.0,0.0,1676478417.80885,1
336,80.0,31345.281761322232,43121.85712121214,-33000.60725219337,-27589.249919563525,28688.01697349751,9081.893751847,-24350.683313689628,-3203.4520153346084,-0.05,0.962,0.19,192.0,0.0,0.0,0.0,0.0,0.0,0.0,0.0,0.0,0.0,1676478417.808875,1
337,81.0,31391.527520600263,43136.11753417463,-32894.883500919765,-27530.68834909062,28822.21684720717,9174.049994236231,-24062.94930731646,-2930.112532390658,-0.05,0.962,0.19,192.0,0.0,0.0,0.0,0.0,0.0,0.0,0.0,0.0,0.0,1676478417.808899,1
338,82.0,31536.322121181744,43249.150305885116,-32791.0372961804,-27476.395961808677,28947.364264412437,9281.7406990219,-23600.71523198071,-2324.5590716074794,-0.05,0.962,0.19,192.0,0.0,0.0,0.0,0.0,0.0,0.0,0.0,0.0,0.0,1676478417.808924,1
339,83.0,31502.638042287595,43244.43408780505,-32901.097285878335,-27543.808823085885,28809.297538912004,9183.951817029932,-23851.881784424997,-2530.8656729299632,-0.05,0.962,0.19,192.0,0.0,0.0,0.0,0.0,0.0,0.0,0.0,0.0,0.0,1676478417.808949,1
340,84.0,31351.20497360289,43125.679269514,-33016.36523203435,-27605.834913949362,28669.95676397762,9063.36415569355,-24355.354828280786,-3176.4511080325974,-0.05,0.962,0.19,192.0,0.0,0.0,0.0,0.0,0.0,0.0,0.0,0.0,0.0,1676478417.808973,1
341,85.0,31365.06305516518,43113.452865296946,-32932.9261699827,-27555.252916247002,28776.35106758488,9132.676915249458,-24170.572956868764,-3038.3620307877104,-0.05,0.962,0.19,192.0,0.0,0.0,0.0,0.0,0.0,0.0,0.0,0.0,0.0,1676478417.808998,1
342,86.0,31508.29303363479,43217.72375318095,-32810.572720834345,-27487.705944503065,28923.403194356346,9260.797114467277,-23658.49449139768,-2400.890278922353,-0.05,0.962,0.19,192.0,0.0,0.0,0.0,0.0,0.0,0.0,0.0,0.0,0.0,1676478417.809038,1
343,87.0,31526.37559489913,43254.49237280993,-32877.24797454452,-27524.96630251006,28844.143908517828,9212.62910516609,-23760.17257692487,-2415.173043629294,-0.038,0.962,0.188,192.0,254.0,208.0,30.0,16.0,5.0,224.0,0.0,0.0,0.0,1676478417.809063,1
344,88.0,31368.393465089022,43137.92802547551,-33011.850179654386,-27597.922396412185,28681.333801905374,9075.389394210506,-24306.829191068315,-3097.594153594274,-0.038,0.962,0.188,192.0,0.0,0.0,0.0,0.0,0.0,0.0,0.0,0.0,0.0,1676478417.809088,1
345,89.0,31352.85900269258,43105.94267915996,-32954.585010359886,-27563.992448329027,28747.897296893276,9119.087054620632,-24248.871117695704,-3109.4852816444973,-0.038,0.962,0.188,192.0,0.0,0.0,0.0,0.0,0.0,0.0,0.0,0.0,0.0,1676478417.809113,1
346,90.0,31492.22212937142,43207.21843328696,-32819.75928780547,-27490.566967793344,28908.51693254911,9251.632899240602,-23725.795593952607,-2483.6364368958994,-0.038,0.962,0.188,192.0,0.0,0.0,0.0,0.0,0.0,0.0,0.0,0.0,0.0,1676478417.870888,1
347,91.0,31543.519382896353,43268.305750883315,-32854.94093357813,-27510.3929651252,28860.37127499238,9235.629050210602,-23696.31364301606,-2328.8059030539875,-0.038,0.962,0.188,192.0,0.0,0.0,0.0,0.0,0.0,0.0,0.0,0.0,0.0,1676478417.870928,1
348,92.0,31403.776276561774,43170.941552036,-32999.9366998597,-27588.780532929963,28689.24631944255,9090.879153118034,-24249.519318284907,-2998.5535739128086,-0.038,0.962,0.188,192.0,0.0,0.0,0.0,0.0,0.0,0.0,0.0,0.0,0.0,1676478417.870957,1
349,93.0,31353.596610259607,43113.22934785239,-32973.159310002244,-27567.233451275046,28722.97510182561,9104.066682346664,-24316.0381097839,-3160.402555513687,-0.038,0.962,0.188,192.0,0.0,0.0,0.0,0.0,0.0,0.0,0.0,0.0,0.0,1676478417.870982,1
350,94.0,31484.130797878603,43200.93759309502,-32827.09065998682,-27482.654450256166,28893.809484697522,9244.994431137375,-23815.783717129674,-2583.0569962331056,-0.038,0.962,0.188,192.0,0.0,0.0,0.0,0.0,0.0,0.0,0.0,0.0,0.0,1676478417.871007,1
351,95.0,31569.067426808768,43284.51076561341,-32821.10039247279,-27474.49606352998,28898.23513009967,9276.532742563813,-23639.897840010864,-2251.021832349519,-0.038,0.962,0.188,192.0,0.0,0.0,0.0,0.0,0.0,0.0,0.0,0.0,0.0,1676478417.871032,1
352,96.0,31444.61291368162,43206.25730827538,-32971.95231580166,-27560.21500351608,28719.667043646223,9124.451473289904,-24157.139558451127,-2856.0612030102257,-0.038,0.962,0.188,192.0,0.0,0.0,0.0,0.0,0.0,0.0,0.0,0.0,0.0,1676478417.871057,1
353,97.0,31354.937714926928,43120.00192642235,-32985.7880456195,-27565.333552996344,28709.139372007772,9094.969522353354,-24359.042866115913,-3177.7475092110053,-0.036000000000000004,0.972,0.192,192.0,254.0,224.0,30.0,96.0,6.0,0.0,0.0,0.0,0.0,1676478417.871082,1
354,98.0,31466.025884869803,43192.01924705735,-32839.562933392874,-27483.749685734474,28889.00385963963,9228.856471640644,-23902.93316876092,-2686.031482938705,-0.036000000000000004,0.972,0.192,192.0,0.0,0.0,0.0,0.0,0.0,0.0,0.0,0.0,0.0,1676478417.871107,1
355,99.0,31582.590232204228,43297.877108797686,-32793.853615981774,-27457.128758088205,28939.76467129763,9297.185754440517,-23603.82212446,-2230.34646872836,-0.036000000000000004,0.972,0.192,192.0,0.0,0.0,0.0,0.0,0.0,0.0,0.0,0.0,0.0,1676478417.871131,1
356,100.0,31484.37666706761,43246.333986083744,-32936.90478049574,-27540.25489571749,28767.097445380386,9156.056839949708,-24060.311801470736,-2739.5639109091653,-0.036000000000000004,0.972,0.192,192.0,0.0,0.0,0.0,0.0,0.0,0.0,0.0,0.0,0.0,1676478417.871156,1
357,101.0,31377.892956482527,43156.099993717675,-32968.39838843327,-27549.620276644266,28724.562075681937,9108.201755070897,-24361.278040561443,-3183.760128469483,-0.036000000000000004,0.972,0.192,192.0,0.0,0.0,0.0,0.0,0.0,0.0,0.0,0.0,0.0,1676478417.871181,1
358,102.0,31461.175556323,43200.199985527994,-32833.17033447866,-27471.992668150982,28884.578214237477,9231.650439697558,-23968.379076526056,-2790.12355686707,-0.036000000000000004,0.972,0.192,192.0,0.0,0.0,0.0,0.0,0.0,0.0,0.0,0.0,0.0,1676478417.871205,1
359,103.0,31591.575633475262,43308.4718356695,-32755.408615518645,-27427.19977226255,28974.096950780982,9324.007847786886,-23571.27798453307,-2250.2618730380386,-0.036000000000000004,0.972,0.192,192.0,0.0,0.0,0.0,0.0,0.0,0.0,0.0,0.0,0.0,1676478417.87123,1
360,104.0,31531.069461234747,43285.002503991425,-32881.40539901321,-27497.741877763496,28820.585169861934,9204.403663206538,-23924.59200913811,-2615.3105634821136,-0.036000000000000004,0.972,0.192,192.0,0.0,0.0,0.0,0.0,0.0,0.0,0.0,0.0,0.0,1676478417.871255,1
361,105.0,31395.84140728014,43175.85893581616,-32959.99413251807,-27533.236447958523,28723.48919194808,9116.002513885798,-24341.25087752949,-3179.334483067332,-0.036000000000000004,0.972,0.192,192.0,0.0,0.0,0.0,0.0,0.0,0.0,0.0,0.0,0.0,1676478417.928761,1
362,106.0,31440.70135840194,43189.8958313341,-32853.82334635536,-27476.53007227541,28855.833870867955,9212.807919121733,-24062.52462417181,-2925.664535244052,-0.048,0.97,0.182,192.0,254.0,128.0,30.0,80.0,5.0,176.0,0.0,0.0,0.0,1676478417.928802,1
363,107.0,31586.367677017177,43303.6215071227,-32748.39016775968,-27415.643920379156,28979.05903805006,9335.18372001454,-23591.841589431955,-2322.480359373136,-0.048,0.97,0.182,192.0,0.0,0.0,0.0,0.0,0.0,0.0,0.0,0.0,0.0,1676478417.928849,1
364,108.0,31558.852679592692,43307.868338569206,-32852.05755854339,-27477.3347350758,28856.61618192389,9248.97304165042,-23821.10343231004,-2515.6664867003547,-0.048,0.97,0.182,192.0,0.0,0.0,0.0,0.0,0.0,0.0,0.0,0.0,0.0,1676478417.928877,1
365,109.0,31411.30881444321,43193.002723813384,-32963.99509477557,-27539.718453850564,28721.142258780274,9129.324153581161,-24322.542467420397,-3155.5969304557957,-0.048,0.97,0.182,192.0,0.0,0.0,0.0,0.0,0.0,0.0,0.0,0.0,0.0,1676478417.928902,1
366,110.0,31430.93364607497,43186.76658711035,-32880.488977490546,-27491.148113149182,28824.02733850805,9195.708834613424,-24153.228003171447,-3040.753667444428,-0.048,0.97,0.182,192.0,0.0,0.0,0.0,0.0,0.0,0.0,0.0,0.0,0.0,1676478417.928926,1
367,111.0,31582.143197315123,43300.93929778806,-32749.57481021581,-27417.812039591317,28979.483721194712,9330.646315890112,-23634.15344168585,-2420.269241365104,-0.048,0.97,0.182,192.0,0.0,0.0,0.0,0.0,0.0,0.0,0.0,0.0,0.0,1676478417.928951,1
368,112.0,31591.754447430903,43329.99656557996,-32816.652395326186,-27457.5310894884,28893.94359516425,9283.439431600504,-23717.950131648795,-2421.6103460324225,-0.048,0.97,0.182,192.0,0.0,0.0,0.0,0.0,0.0,0.0,0.0,0.0,0.0,1676478417.928976,1
369,113.0,31440.142564790556,43217.679049692044,-32952.88627778128,-27534.48814564802,28732.6310554303,9142.779903743256,-24266.03725743738,-3095.4260343821093,-0.048,0.97,0.182,192.0,0.0,0.0,0.0,0.0,0.0,0.0,0.0,0.0,0.0,1676478417.929001,1
370,114.0,31425.725689616884,43185.380778954124,-32899.197387599634,-27502.01106095446,28803.307271397982,9177.62627334908,-24221.669044693597,-3126.3832004527094,-0.048,0.97,0.182,192.0,0.0,0.0,0.0,0.0,0.0,0.0,0.0,0.0,0.0,1676478417.929026,1
371,115.0,31570.699104154006,43290.970419761,-32752.346426528267,-27420.158972759127,28973.426398447325,9317.257620961384,-23689.40695397937,-2516.649963456388,-0.048,0.97,0.182,192.0,0.0,0.0,0.0,0.0,0.0,0.0,0.0,0.0,0.0,1676478417.92905,1
372,116.0,31610.46285754,43340.591292451776,-32788.31038335686,-27442.28719976988,28921.90562747784,9304.494774877403,-23639.473156866214,-2352.766973110077,-0.062,0.968,0.178,192.0,254.0,16.0,30.0,64.0,5.0,144.0,0.0,0.0,0.0,1676478417.929075,1
373,117.0,31460.393245267063,43234.21934058897,-32945.420795133214,-27529.5484101234,28735.31326476494,9149.194854401929,-24201.93245433956,-3017.954888100015,-0.062,0.968,0.178,192.0,0.0,0.0,0.0,0.0,0.0,0.0,0.0,0.0,0.0,1676478417.9291,1
374,118.0,31404.44682889543,43176.32832244973,-32925.66185303472,-27511.085869203314,28767.857404691866,9157.397944617027,-24278.509530843443,-3184.162459869678,-0.062,0.968,0.178,192.0,0.0,0.0,0.0,0.0,0.0,0.0,0.0,0.0,0.0,1676478417.929124,1
375,119.0,31526.934388510515,43257.5098583114,-32784.085903654806,-27431.580714175787,28940.81520328703,9296.895181762598,-23778.724524822777,-2623.2230810192923,-0.062,0.968,0.178,192.0,0.0,0.0,0.0,0.0,0.0,0.0,0.0,0.0,0.0,1676478417.929149,1
376,120.0,31615.469648297985,43343.72053667552,-32776.2851448399,-27425.635150150676,28941.172831198317,9332.769731613365,-23595.57433075599,-2295.6359142823117,-0.062,0.968,0.178,192.0,0.0,0.0,0.0,0.0,0.0,0.0,0.0,0.0,0.0,1676478417.988571,1
377,121.0,31484.08609438969,43257.241637377934,-32933.261446149525,-27516.942026250606,28748.50079399357,9177.603921604625,-24117.06288064276,-2893.4780232284097,-0.062,0.968,0.178,192.0,0.0,0.0,0.0,0.0,0.0,0.0,0.0,0.0,0.0,1676478417.988611,1
378,122.0,31383.525596085263,43163.94545602149,-32952.43924289218,-27524.653378087685,28724.53972393748,9146.803217745211,-24336.489955960507,-3218.293573652932,-0.062,0.968,0.178,192.0,0.0,0.0,0.0,0.0,0.0,0.0,0.0,0.0,0.0,1676478417.988639,1
379,123.0,31489.070533403225,43229.83839867573,-32808.42695336664,-27444.701188171053,28897.25165334364,9279.058489687264,-23881.140217916993,-2736.25585272978,-0.062,0.968,0.178,192.0,0.0,0.0,0.0,0.0,0.0,0.0,0.0,0.0,0.0,1676478417.988665,1
380,124.0,31603.73498245895,43328.208426023535,-32763.38818828919,-27421.90240882664,28943.832688788498,9340.928118339554,-23576.150664824327,-2289.1986118791833,-0.062,0.968,0.178,192.0,0.0,0.0,0.0,0.0,0.0,0.0,0.0,0.0,0.0,1676478417.988689,1
381,125.0,31495.306670106256,43263.27660838087,-32918.4198878312,-27519.4454216296,28763.096483122885,9189.00331127683,-24031.76862380131,-2786.6366847320423,-0.062,0.968,0.178,192.0,0.0,0.0,0.0,0.0,0.0,0.0,0.0,0.0,0.0,1676478417.988714,1
382,126.0,31374.11551166958,43160.90561877556,-32970.298286711964,-27540.120785250758,28704.981947539087,9133.61568851658,-24360.562784738875,-3233.0233732489796,-0.062,0.966,0.18,192.0,254.0,16.0,30.0,48.0,5.0,160.0,0.0,0.0,0.0,1676478417.988739,1
383,127.0,31450.33496026218,43199.7976541278,-32837.484221158535,-27459.140415089183,28864.796920394532,9254.203349852962,-23978.772637697773,-2846.2934906832566,-0.062,0.966,0.18,192.0,0.0,0.0,0.0,0.0,0.0,0.0,0.0,0.0,0.0,1676478417.988764,1
384,128.0,31586.01004910589,43313.120998516206,-32753.374606773214,-27412.492324410956,28962.898726808875,9345.309060252794,-23566.025324586073,-2297.8487369833874,-0.062,0.966,0.18,192.0,0.0,0.0,0.0,0.0,0.0,0.0,0.0,0.0,0.0,1676478417.988804,1
385,129.0,31515.758516282862,43280.15217544463,-32888.78147468346,-27494.81379923985,28797.60757656188,9216.071273812207,-23918.288817201712,-2648.838180165074,-0.062,0.966,0.18,192.0,0.0,0.0,0.0,0.0,0.0,0.0,0.0,0.0,0.0,1676478417.988829,1
386,130.0,31372.059151179692,43163.45371764347,-32976.84734783737,-27542.199497485104,28691.72736307709,9114.28142956274,-24354.77368292495,-3225.6249458342727,-0.062,0.966,0.18,192.0,0.0,0.0,0.0,0.0,0.0,0.0,0.0,0.0,0.0,1676478417.988854,1
387,131.0,31420.74125060335,43180.35163645168,-32867.323800006365,-27481.402752566668,28825.5025536421,9202.05673003873,-24079.891929613583,-2984.203753972501,-0.062,0.966,0.18,192.0,0.0,0.0,0.0,0.0,0.0,0.0,0.0,0.0,0.0,1676478417.988879,1
388,132.0,31563.412435461574,43287.528251114876,-32761.756510943953,-27425.121060028203,28952.77338657062,9317.123510494652,-23610.39353732986,-2387.859211904909,-0.062,0.966,0.18,192.0,0.0,0.0,0.0,0.0,0.0,0.0,0.0,0.0,0.0,1676478417.988903,1
389,133.0,31536.1433072261,43286.92475401459,-32867.39085523973,-27488.912938703652,28813.65612908079,9231.672791442012,-23839.789490674673,-2561.509914578189,-0.062,0.966,0.18,192.0,0.0,0.0,0.0,0.0,0.0,0.0,0.0,0.0,0.0,1676478417.988928,1
390,134.0,31383.88322399655,43169.35457817967,-32983.95520257416,-27552.570706912364,28669.643839555247,9108.805252171189,-24346.324723520844,-3196.5453262979186,-0.062,0.966,0.18,192.0,0.0,0.0,0.0,0.0,0.0,0.0,0.0,0.0,0.0,1676478417.988953,1
391,135.0,31391.10283745561,43153.26132217185,-32902.930128923676,-27509.118915691248,28773.914727439253,9168.082078466663,-24187.336765210246,-3088.2287726675004,-0.062,0.966,0.18,192.0,0.0,0.0,0.0,0.0,0.0,0.0,0.0,0.0,0.0,1676478418.048508,1
392,136.0,31532.410565902064,43255.587608288246,-32776.86629019574,-27440.879039869196,28932.16507818283,9301.678455076035,-23668.239851980194,-2462.849314552464,-0.054,0.972,0.178,192.0,254.0,80.0,30.0,96.0,5.0,144.0,0.0,0.0,0.0,1676478418.048549,1
393,137.0,31541.798298573292,43285.09191096925,-32853.44336669962,-27488.82353172583,28836.276094469562,9249.397724795072,-23758.42914085736,-2469.018396022129,-0.054,0.972,0.178,192.0,0.0,0.0,0.0,0.0,0.0,0.0,0.0,0.0,0.0,1676478418.04858,1
394,138.0,31385.06786645268,43170.80744156927,-32991.04070556649,-27566.13821579674,28669.420322110695,9105.832470158633,-24307.544446890886,-3142.6329186717176,-0.054,0.972,0.178,192.0,0.0,0.0,0.0,0.0,0.0,0.0,0.0,0.0,0.0,1676478418.04861,1
395,139.0,31357.619924261562,43126.57333929221,-32941.933922998185,-27542.35595969629,28731.088785062886,9134.018019916775,-24272.072228440313,-3184.207163358589,-0.054,0.972,0.178,192.0,0.0,0.0,0.0,0.0,0.0,0.0,0.0,0.0,0.0,1676478418.04864,1
396,140.0,31496.021925928824,43223.02111661686,-32802.61549980826,-27468.215223338037,28900.425601056293,9270.944806449987,-23749.533146564147,-2583.1464032109266,-0.054,0.972,0.178,192.0,0.0,0.0,0.0,0.0,0.0,0.0,0.0,0.0,0.0,1676478418.048669,1
397,141.0,31549.487298665917,43283.6166958352,-32828.58822686532,-27484.889624701696,28862.449987226726,9266.385050581104,-23686.590634178,-2403.6842469792664,-0.054,0.972,0.178,192.0,0.0,0.0,0.0,0.0,0.0,0.0,0.0,0.0,0.0,1676478418.048698,1
398,142.0,31402.479875383364,43179.12229050664,-32983.8881473408,-27575.145968812227,28674.00242972403,9110.638095216525,-24241.517393769907,-3061.2055136210342,-0.054,0.972,0.178,192.0,0.0,0.0,0.0,0.0,0.0,0.0,0.0,0.0,0.0,1676478418.048727,1
399,143.0,31337.369243785055,43110.77065596231,-32968.063112266434,-27564.193614029125,28695.01306951202,9107.37474052605,-24330.700854146584,-3248.222559478588,-0.054,0.972,0.178,192.0,0.0,0.0,0.0,0.0,0.0,0.0,0.0,0.0,0.0,1676478418.048755,1
400,144.0,31463.634248213086,43191.37104646815,-32824.22963669654,-27484.95667993506,28866.696818673234,9244.882672415099,-23834.983865616785,-2700.0907302010933,-0.054,0.972,0.178,192.0,0.0,0.0,0.0,0.0,0.0,0.0,0.0,0.0,0.0,1676478418.048783,1
401,145.0,31552.750653356394,43275.12303294218,-32812.15969469067,-27477.938232176097,28874.899908888332,9276.778611752821,-23642.557697601045,-2363.6746244042665,-0.054,0.972,0.178,192.0,0.0,0.0,0.0,0.0,0.0,0.0,0.0,0.0,0.0,1676478418.048812,1
402,146.0,31423.758736104817,43190.81225285676,-32970.61121113434,-27566.607602430297,28686.407647896725,9118.796481942712,-24161.229927686447,-2951.503151834387,-0.046,0.962,0.184,192.0,254.0,144.0,30.0,16.0,5.0,192.0,0.0,0.0,0.0,1676478418.048842,1
403,147.0,31333.547095483198,43110.27891758429,-32986.36919097533,-27569.22275653157,28666.514595331504,9093.270789774751,-24378.131255880744,-3280.9902168500685,-0.046,0.962,0.184,192.0,0.0,0.0,0.0,0.0,0.0,0.0,0.0,0.0,0.0,1676478418.04887,1
404,148.0,31430.151335019036,43167.49938338988,-32849.62121839776,-27499.574720808832,28831.314007200483,9215.44542496746,-23935.030273798737,-2813.1682054004914,-0.046,0.962,0.184,192.0,0.0,0.0,0.0,0.0,0.0,0.0,0.0,0.0,0.0,1676478418.048898,1
405,149.0,31545.754557341883,43268.23869564995,-32801.743781774494,-27473.91491817414,28882.700667703233,9285.138164179107,-23624.095156680964,-2351.828199842954,-0.046,0.962,0.184,192.0,0.0,0.0,0.0,0.0,0.0,0.0,0.0,0.0,0.0,1676478418.048927,1
406,150.0,31450.245553284356,43217.187311314025,-32948.080652723394,-27559.16447152668,28706.97125279561,9148.926633468465,-24068.51489168583,-2826.8474730071393,-0.046,0.962,0.184,192.0,0.0,0.0,0.0,0.0,0.0,0.0,0.0,0.0,0.0,1676478418.108726,1
407,151.0,31334.15059258349,43121.38773457858,-33002.4400952387,-27585.204253817115,28644.6098857653,9081.267903002252,-24406.87559925027,-3288.656865198239,-0.046,0.962,0.184,192.0,0.0,0.0,0.0,0.0,0.0,0.0,0.0,0.0,0.0,1676478418.108767,1
408,152.0,31407.844294052637,43158.335168163205,-32878.56672746739,-27514.840962271806,28791.818474747954,9192.780756089778,-24039.479975638387,-2922.7141049759516,-0.046,0.962,0.184,192.0,0.0,0.0,0.0,0.0,0.0,0.0,0.0,0.0,0.0,1676478418.108795,1
409,153.0,31540.97128402845,43263.835401992255,-32799.106275928774,-27469.71279021654,28886.411057282814,9291.97779798243,-23628.4760985942,-2369.9331128517524,-0.046,0.962,0.184,192.0,0.0,0.0,0.0,0.0,0.0,0.0,0.0,0.0,0.0,1676478418.108821,1
410,154.0,31477.537033264285,43238.309709824294,-32930.84745774835,-27545.820480086863,28732.139317052286,9179.637930350058,-23969.45196025991,-2700.738930790297,-0.046,0.962,0.184,192.0,0.0,0.0,0.0,0.0,0.0,0.0,0.0,0.0,0.0,1676478418.108846,1
411,155.0,31340.38672928652,43132.56360680624,-33012.878359899325,-27583.729038683065,28638.932542673654,9093.181382796929,-24396.750259012017,-3265.8580858538257,-0.046,0.962,0.184,192.0,0.0,0.0,0.0,0.0,0.0,0.0,0.0,0.0,0.0,1676478418.108871,1
412,156.0,31381.759808273295,43143.806534267256,-32909.72505923809,-27526.933256022126,28766.11396862435,9174.206456447419,-24128.57402903724,-3023.542824213842,-0.048,0.966,0.178,192.0,254.0,128.0,30.0,48.0,5.0,144.0,0.0,0.0,0.0,1676478418.108896,1
413,157.0,31527.448478632985,43253.955930943004,-32797.02756369443,-27464.840109925284,28897.22930159918,9292.022501471341,-23640.59074408898,-2411.7755784720875,-0.048,0.966,0.178,192.0,0.0,0.0,0.0,0.0,0.0,0.0,0.0,0.0,0.0,1676478418.108921,1
414,158.0,31509.65649004656,43262.85192523622,-32890.480207262066,-27519.333662907324,28782.251928121084,9214.663113911523,-23846.71853145582,-2568.1707344258707,-0.048,0.966,0.178,192.0,0.0,0.0,0.0,0.0,0.0,0.0,0.0,0.0,0.0,1676478418.108945,1
415,159.0,31361.97851443035,43145.63937731259,-33006.50811272956,-27585.65128870622,28651.360112590806,9090.99091184031,-24361.032171372437,-3221.7133905545943,-0.048,0.966,0.178,192.0,0.0,0.0,0.0,0.0,0.0,0.0,0.0,0.0,0.0,1676478418.10897,1
416,160.0,31368.01348543328,43127.26624337033,-32929.46164959212,-27543.093567263317,28749.551325982968,9150.982993958354,-24212.79540214484,-3127.4784359310197,-0.048,0.966,0.178,192.0,0.0,0.0,0.0,0.0,0.0,0.0,0.0,0.0,0.0,1676478418.108994,1
417,161.0,31514.70798429346,43240.813105203284,-32794.412409593155,-27464.281316313904,28894.412981797814,9289.452050858981,-23688.11055280096,-2491.3030852440697,-0.048,0.966,0.178,192.0,0.0,0.0,0.0,0.0,0.0,0.0,0.0,0.0,0.0,1676478418.109019,1
418,162.0,31538.400833416086,43282.499108612436,-32849.48710793103,-27493.807970739363,28815.019585492562,9253.331631819205,-23746.247440129217,-2450.8017242910537,-0.048,0.966,0.178,192.0,0.0,0.0,0.0,0.0,0.0,0.0,0.0,0.0,0.0,1676478418.109044,1
419,163.0,31395.03674447975,43179.41286318456,-32979.06017053845,-27561.39964597221,28660.881955728764,9119.087054620632,-24286.153827447157,-3109.7087990890504,-0.048,0.966,0.178,192.0,0.0,0.0,0.0,0.0,0.0,0.0,0.0,0.0,0.0,1676478418.109069,1
420,164.0,31370.472177323365,43144.32062438973,-32924.83483848987,-27523.98282575403,28730.30647400695,9161.398906874527,-24252.581507275285,-3150.8360088868153,-0.048,0.966,0.178,192.0,0.0,0.0,0.0,0.0,0.0,0.0,0.0,0.0,0.0,1676478418.109094,1
421,165.0,31510.930539480516,43243.31650058228,-32786.74576124499,-27451.831394652298,28894.94942366474,9302.237248687417,-23737.574963280556,-2552.032774929139,-0.048,0.966,0.178,192.0,0.0,0.0,0.0,0.0,0.0,0.0,0.0,0.0,0.0,1676478418.171904,1
422,166.0,31570.63204892064,43308.360076947225,-32809.030450466926,-27465.845938425773,28860.70655115921,9290.88256250412,-23664.842386822987,-2356.075031289462,-0.038,0.964,0.184,192.0,254.0,208.0,30.0,32.0,5.0,192.0,0.0,0.0,0.0,1676478418.171945,1
423,167.0,31432.095936786645,43212.873424634156,-32958.071882494914,-27545.418148686666,28676.975211736586,9136.007325173297,-24213.4659544785,-3006.7119606389956,-0.038,0.964,0.184,192.0,0.0,0.0,0.0,0.0,0.0,0.0,0.0,0.0,0.0,1676478418.171974,1
424,168.0,31371.54506105722,43150.579112837215,-32940.92809449769,-27534.152869481193,28699.595177125357,9137.907223451999,-24315.591074894797,-3204.4354920906417,-0.038,0.964,0.184,192.0,0.0,0.0,0.0,0.0,0.0,0.0,0.0,0.0,0.0,1676478418.171999,1
425,169.0,31492.17742588251,43230.754820198395,-32798.10044742828,-27458.469862755523,28875.86103389991,9270.363661094148,-23822.176316043893,-2658.9188169144177,-0.038,0.964,0.184,192.0,0.0,0.0,0.0,0.0,0.0,0.0,0.0,0.0,0.0,1676478418.172025,1
426,170.0,31583.93133687155,43319.111266030224,-32784.10825539926,-27450.266772540424,28892.602490496934,9306.998170256396,-23614.595665287456,-2310.9692109786524,-0.038,0.964,0.184,192.0,0.0,0.0,0.0,0.0,0.0,0.0,0.0,0.0,0.0,1676478418.172049,1
427,171.0,31462.382550523587,43243.8082389603,-32933.9767019721,-27536.11982299326,28710.59223539737,9162.941177241943,-24119.812145210763,-2890.2370202823904,-0.038,0.964,0.184,192.0,0.0,0.0,0.0,0.0,0.0,0.0,0.0,0.0,0.0,1676478418.172091,1
428,172.0,31368.54992730021,43158.268112929836,-32953.042739992474,-27540.83604107333,28687.480531630583,9137.750761240812,-24343.061368830367,-3233.269242437988,-0.038,0.964,0.184,192.0,0.0,0.0,0.0,0.0,0.0,0.0,0.0,0.0,0.0,1676478418.172115,1
429,173.0,31462.963695879425,43212.82872114524,-32819.40165989419,-27468.505796015954,28847.966056819685,9256.55028302077,-23909.68339558642,-2774.11970783707,-0.038,0.964,0.184,192.0,0.0,0.0,0.0,0.0,0.0,0.0,0.0,0.0,0.0,1676478418.17214,1
430,174.0,31585.093627583225,43320.05003929735,-32757.353217286258,-27431.066624053317,28914.68601401878,9329.394618200615,-23576.08360959096,-2288.8409839678984,-0.038,0.964,0.184,192.0,0.0,0.0,0.0,0.0,0.0,0.0,0.0,0.0,0.0,1676478418.172164,1
431,175.0,31492.356239838155,43268.48456483896,-32898.2139108436,-27512.784601781917,28744.432776502705,9195.57472414669,-24007.27111187829,-2747.3423179796123,-0.042,0.966,0.188,192.0,254.0,176.0,30.0,48.0,5.0,224.0,0.0,0.0,0.0,1676478418.172189,1
432,176.0,31373.042627935723,43165.01833975534,-32954.83087954889,-27542.288904462923,28669.979115722075,9123.110368622585,-24358.19349982661,-3233.001021504524,-0.042,0.966,0.188,192.0,0.0,0.0,0.0,0.0,0.0,0.0,0.0,0.0,0.0,1676478418.172213,1
433,177.0,31449.150317806045,43204.759741396876,-32828.54352337641,-27473.49023502949,28823.64735885231,9232.723323431412,-23998.442172818446,-2876.9153805870274,-0.042,0.966,0.188,192.0,0.0,0.0,0.0,0.0,0.0,0.0,0.0,0.0,0.0,1676478418.172238,1
434,178.0,31585.987697361434,43316.58551890678,-32743.159859557138,-27427.71386238502,28933.461479361235,9330.825129845754,-23581.17980732677,-2314.947821491697,-0.042,0.966,0.188,192.0,0.0,0.0,0.0,0.0,0.0,0.0,0.0,0.0,0.0,1676478418.172263,1
435,179.0,31528.789583300306,43294.07731224028,-32870.02836108546,-27502.748668521486,28789.002154946586,9214.797224378255,-23907.180000207427,-2635.4718369808006,-0.042,0.966,0.188,192.0,0.0,0.0,0.0,0.0,0.0,0.0,0.0,0.0,0.0,1676478418.172288,1
436,180.0,31384.844349008126,43176.864764316655,-32969.04658902247,-27552.101320278805,28658.132691160765,9120.785787199235,-24358.796996926903,-3212.5491753279184,-0.042,0.966,0.188,192.0,0.0,0.0,0.0,0.0,0.0,0.0,0.0,0.0,0.0,1676478418.228302,1
437,181.0,31424.85397158313,43187.72771212193,-32867.23439302855,-27490.87989221572,28778.563890285957,9212.897326099555,-24102.735412446906,-2984.0025882724035,-0.042,0.966,0.188,192.0,0.0,0.0,0.0,0.0,0.0,0.0,0.0,0.0,0.0,1676478418.228344,1
438,182.0,31573.157796044088,43302.39216117766,-32758.470804509023,-27429.077318796793,28908.002842426642,9330.13222576764,-23622.686996780278,-2377.3538920109145,-0.042,0.966,0.188,192.0,0.0,0.0,0.0,0.0,0.0,0.0,0.0,0.0,0.0,1676478418.228375,1
439,183.0,31552.035397533826,43306.259012968425,-32856.37144522327,-27488.957642192563,28795.70767828318,9251.454085284959,-23816.722490396798,-2521.2767745586366,-0.042,0.966,0.188,192.0,0.0,0.0,0.0,0.0,0.0,0.0,0.0,0.0,0.0,1676478418.228405,1
440,184.0,31399.775314304272,43190.007590056375,-32976.95910655965,-27555.16350926918,28657.260973127006,9129.27945009225,-24332.153717536177,-3168.9632736400695,-0.042,0.966,0.188,192.0,0.0,0.0,0.0,0.0,0.0,0.0,0.0,0.0,0.0,1676478418.228435,1
441,185.0,31405.11738122909,43172.93085729252,-32895.37523929778,-27505.25206390048,28753.149956840272,9189.875029310588,-24188.16377975509,-3079.7351097744836,-0.044,0.974,0.184,192.0,254.0,160.0,30.0,112.0,5.0,192.0,0.0,0.0,0.0,1676478418.228464,1
442,186.0,31553.264743478867,43281.783852789864,-32759.498984753965,-27429.792574619365,28918.664624531822,9322.867908819666,-23663.076599011016,-2454.422706892813,-0.044,0.974,0.184,192.0,0.0,0.0,0.0,0.0,0.0,0.0,0.0,0.0,0.0,1676478418.228493,1
443,187.0,31568.195708775012,43314.506806672434,-32831.29278794441,-27476.373610064224,28843.808632351,9266.40740232556,-23728.45545154279,-2423.756113500132,-0.044,0.974,0.184,192.0,0.0,0.0,0.0,0.0,0.0,0.0,0.0,0.0,0.0,1676478418.228522,1
444,188.0,31411.957015032414,43202.435159973524,-32976.71323737064,-27555.543488924923,28672.39310412325,9120.159938354485,-24288.076077470312,-3101.2374879404892,-0.044,0.974,0.184,192.0,0.0,0.0,0.0,0.0,0.0,0.0,0.0,0.0,0.0,1676478418.228551,1
445,189.0,31387.303040898212,43163.5878281102,-32924.25369313404,-27518.283130917924,28734.173325797718,9161.95770048591,-24266.551347559853,-3157.407421756676,-0.044,0.974,0.184,192.0,0.0,0.0,0.0,0.0,0.0,0.0,0.0,0.0,0.0,1676478418.22858,1
446,190.0,31536.05390024828,43267.121108427185,-32775.16755761714,-27435.089938055273,28905.00770866963,9304.092443477208,-23733.104614389493,-2548.9705859387623,-0.044,0.974,0.184,192.0,0.0,0.0,0.0,0.0,0.0,0.0,0.0,0.0,0.0,1676478418.228609,1
447,191.0,31593.453180009506,43329.7283446465,-32798.99451720649,-27448.52333647291,28867.792054151545,9310.350931924693,-23646.7821773031,-2330.0352489990296,-0.044,0.974,0.184,192.0,0.0,0.0,0.0,0.0,0.0,0.0,0.0,0.0,0.0,1676478418.228638,1
448,192.0,31443.60708518113,43225.233939317935,-32959.59180111787,-27539.919619550663,28680.8197117829,9149.083095679653,-24202.424192717575,-2984.270809205867,-0.044,0.974,0.184,192.0,0.0,0.0,0.0,0.0,0.0,0.0,0.0,0.0,0.0,1676478418.228682,1
449,193.0,31378.11647392708,43156.099993717675,-32949.064129479426,-27529.97309326805,28699.081087002887,9149.306613124207,-24314.76406034995,-3198.7357972545383,-0.044,0.974,0.184,192.0,0.0,0.0,0.0,0.0,0.0,0.0,0.0,0.0,0.0,1676478418.22871,1
450,194.0,31499.732315508405,43233.92876791105,-32803.77779051993,-27450.914973129627,28877.224490311684,9278.052661186775,-23821.90809511043,-2662.070412882616,-0.044,0.974,0.184,192.0,0.0,0.0,0.0,0.0,0.0,0.0,0.0,0.0,0.0,1676478418.228735,1
451,195.0,31596.045982366322,43325.213292266526,-32783.97414493253,-27437.727443900996,28894.837664942464,9318.866946562166,-23600.71523198071,-2297.826385238932,-0.05,0.966,0.186,192.0,254.0,112.0,30.0,48.0,5.0,208.0,0.0,0.0,0.0,1676478418.288142,1
452,196.0,31466.539974992276,43242.780058715354,-32947.00776898954,-27534.35403518129,28705.58544463938,9165.66809006549,-24112.90545617407,-2873.741432874374,-0.05,0.966,0.186,192.0,0.0,0.0,0.0,0.0,0.0,0.0,0.0,0.0,0.0,1676478418.288181,1
453,197.0,31363.274915608756,43151.74140354889,-32973.583993146894,-27545.664017875675,28682.831368783878,9123.400941300504,-24356.67358120365,-3237.78429481796,-0.05,0.966,0.186,192.0,0.0,0.0,0.0,0.0,0.0,0.0,0.0,0.0,0.0,1676478418.288209,1
454,198.0,31468.61868722662,43215.443875246514,-32828.58822686532,-27462.381418035202,28852.928144088764,9253.26457658584,-23915.24897995579,-2777.9865596278382,-0.05,0.966,0.186,192.0,0.0,0.0,0.0,0.0,0.0,0.0,0.0,0.0,0.0,1676478418.288234,1
455,199.0,31591.15095033061,43317.5242921739,-32778.140339629696,-27431.625417664698,28901.94551967925,9328.008810044386,-23586.074839362485,-2295.457100326669,-0.05,0.966,0.186,192.0,0.0,0.0,0.0,0.0,0.0,0.0,0.0,0.0,0.0,1676478418.28826,1
456,200.0,31495.977222439913,43263.120146169684,-32931.0709751929,-27519.333662907324,28728.227761772607,9187.885724054066,-24018.357577128125,-2753.4890477048216,-0.05,0.966,0.186,192.0,0.0,0.0,0.0,0.0,0.0,0.0,0.0,0.0,0.0,1676478418.288284,1
457,201.0,31368.572279044663,43156.41291814005,-32995.71222015765,-27548.748558610507,28658.80324349442,9118.885888920533,-24375.337287823833,-3242.366402431298,-0.05,0.966,0.186,192.0,0.0,0.0,0.0,0.0,0.0,0.0,0.0,0.0,0.0,1676478418.288309,1
458,202.0,31442.69066365846,43191.41574995706,-32873.04584658692,-27479.4357990546,28810.213960434674,9228.25297454035,-24024.526658597788,-2896.1602325630465,-0.05,0.966,0.186,192.0,0.0,0.0,0.0,0.0,0.0,0.0,0.0,0.0,0.0,1676478418.288334,1
459,203.0,31579.259822280386,43300.82753906579,-32788.332735101314,-27432.29596999836,28911.087383161474,9324.119606509163,-23600.91639768081,-2326.5707286084566,-0.05,0.966,0.186,192.0,0.0,0.0,0.0,0.0,0.0,0.0,0.0,0.0,0.0,1676478418.288358,1
460,204.0,31517.256083161366,43272.88785849665,-32917.883445964275,-27511.912883748162,28756.25684931956,9206.30356148524,-23927.698901617397,-2634.6671741804093,-0.05,0.966,0.186,192.0,0.0,0.0,0.0,0.0,0.0,0.0,0.0,0.0,0.0,1676478418.288383,1
461,205.0,31376.574203559663,43162.00085425387,-33007.53629297451,-27556.281096491944,28648.208516622606,9114.773167940757,-24375.381991312745,-3213.555003828407,-0.06,0.97,0.184,192.0,254.0,32.0,30.0,80.0,5.0,192.0,0.0,0.0,0.0,1676478418.288407,1
462,206.0,31415.890922056547,43173.53435439281,-32900.9184719227,-27494.63498528421,28775.680515251224,9203.19666900595,-24124.215438868458,-2991.02103603137,-0.06,0.97,0.184,192.0,0.0,0.0,0.0,0.0,0.0,0.0,0.0,0.0,0.0,1676478418.288431,1
463,207.0,31564.48531919543,43286.410663892115,-32784.24236586599,-27429.770222874908,28913.076688417994,9319.448091918004,-23630.688921295277,-2379.723176923177,-0.06,0.97,0.184,192.0,0.0,0.0,0.0,0.0,0.0,0.0,0.0,0.0,0.0,1676478418.288456,1
464,208.0,31555.879897580136,43298.52530938689,-32877.06916058888,-27485.090790401795,28794.7465532716,9246.469646271426,-23815.873124107497,-2503.4400824833015,-0.06,0.97,0.184,192.0,0.0,0.0,0.0,0.0,0.0,0.0,0.0,0.0,0.0,1676478418.288481,1
465,209.0,31402.122247472078,43180.73161610742,-32998.52853995902,-27550.559049911386,28653.394121336238,9118.595316242614,-24329.873839601736,-3153.7417356660053,-0.06,0.97,0.184,192.0,0.0,0.0,0.0,0.0,0.0,0.0,0.0,0.0,0.0,1676478418.288505,1
466,210.0,31403.82098005068,43160.74915656438,-32921.012690188014,-27503.955662722074,28747.22674455962,9179.950854772433,-24188.633166388652,-3074.9071329721373,-0.06,0.97,0.184,192.0,0.0,0.0,0.0,0.0,0.0,0.0,0.0,0.0,0.0,1676478418.348483,1
467,211.0,31547.96738004296,43262.82957349176,-32790.14322640219,-27434.70995839953,28898.033964399572,9313.27901044834,-23665.423532178826,-2448.2536254231486,-0.06,0.97,0.184,192.0,0.0,0.0,0.0,0.0,0.0,0.0,0.0,0.0,0.0,1676478418.348525,1
468,212.0,31576.599964690206,43309.276498469895,-32848.21305849708,-27469.66808672763,28827.17893447625,9275.772783252332,-23707.22129431025,-2396.9116684093083,-0.06,0.97,0.184,192.0,0.0,0.0,0.0,0.0,0.0,0.0,0.0,0.0,0.0,1676478418.348556,1
469,213.0,31426.26213148381,43200.490558205915,-32991.93477534471,-27550.11201502228,28668.6156593103,9124.295011078717,-24257.23067012199,-3075.2647608834222,-0.06,0.97,0.184,192.0,0.0,0.0,0.0,0.0,0.0,0.0,0.0,0.0,0.0,1676478418.348586,1
470,214.0,31385.939584486438,43146.175819179516,-32949.980551002096,-27525.03335774343,28727.87013386132,9144.478636321859,-24256.09073115477,-3157.3180147788544,-0.06,0.97,0.184,192.0,0.0,0.0,0.0,0.0,0.0,0.0,0.0,0.0,0.0,1676478418.348631,1
471,215.0,31522.508743108363,43240.09784938072,-32805.029488209424,-27443.114214314726,28906.549979037045,9286.233399657416,-23731.674102744353,-2555.229074386248,-0.062,0.968,0.184,192.0,254.0,16.0,30.0,64.0,5.0,192.0,0.0,0.0,0.0,1676478418.348659,1
472,216.0,31585.808883405793,43308.360076947225,-32823.69319482961,-27454.11127258674,28872.39651350934,9298.437452130014,-23629.86190675043,-2322.145083206306,-0.062,0.968,0.184,192.0,0.0,0.0,0.0,0.0,0.0,0.0,0.0,0.0,0.0,1676478418.348684,1
473,217.0,31441.304855502232,43210.5488432108,-32979.14957751627,-27543.83117483034,28679.500958860037,9145.305650866705,-24175.177416226557,-2960.8908845056158,-0.062,0.968,0.184,192.0,0.0,0.0,0.0,0.0,0.0,0.0,0.0,0.0,0.0,1676478418.348709,1
474,218.0,31369.91338371198,43139.53735107629,-32973.807510591454,-27536.477450904546,28681.043229227453,9140.209453130896,-24311.43365042611,-3189.0798436498458,-0.062,0.968,0.184,192.0,0.0,0.0,0.0,0.0,0.0,0.0,0.0,0.0,0.0,1676478418.348734,1
475,219.0,31493.339716594186,43221.054163104796,-32824.83313379683,-27455.58648772079,28855.543298190034,9276.085707674707,-23819.22588577579,-2650.2239883213033,-0.062,0.968,0.184,192.0,0.0,0.0,0.0,0.0,0.0,0.0,0.0,0.0,0.0,1676478418.348758,1
476,220.0,31588.178168318056,43308.82946358078,-32803.95660447557,-27446.846955638764,28877.805635667522,9313.189603470517,-23589.60641498642,-2275.5193442725354,-0.062,0.968,0.184,192.0,0.0,0.0,0.0,0.0,0.0,0.0,0.0,0.0,0.0,1676478418.348783,1
477,221.0,31463.880117402092,43230.77717194286,-32957.20016446116,-27538.802032327898,28691.839121799367,9160.52718884077,-24094.19704606498,-2842.538397614765,-0.062,0.968,0.184,192.0,0.0,0.0,0.0,0.0,0.0,0.0,0.0,0.0,0.0,1676478418.348807,1
478,222.0,31364.548965042708,43143.13598193359,-32983.06113279595,-27548.860317332783,28662.223060396085,9119.534089509736,-24344.715397920063,-3216.036047462946,-0.062,0.968,0.184,192.0,0.0,0.0,0.0,0.0,0.0,0.0,0.0,0.0,0.0,1676478418.348832,1
479,223.0,31463.83541391318,43199.84235761671,-32847.98954105253,-27475.68070598611,28830.509344400092,9243.809788681245,-23918.624093368544,-2764.8213821436625,-0.062,0.968,0.184,192.0,0.0,0.0,0.0,0.0,0.0,0.0,0.0,0.0,0.0,1676478418.348857,1
480,224.0,31583.841929893726,43300.64872511014,-32794.68063052662,-27446.064644582828,28891.998993396643,9319.023408773352,-23580.218682315193,-2269.059690124952,-0.062,0.968,0.184,192.0,0.0,0.0,0.0,0.0,0.0,0.0,0.0,0.0,0.0,1676478418.348882,1
481,225.0,31495.37372533962,43255.09586991023,-32943.05151022095,-27529.861334545774,28717.677738389702,9182.029567006775,-24004.79006824375,-2720.6543350999755,-0.058,0.962,0.178,192.0,254.0,48.0,30.0,16.0,5.0,144.0,0.0,0.0,0.0,1676478418.408771,1
482,226.0,31373.288497124733,43154.02128148333,-33005.79285690699,-27556.03522730294,28646.66624625519,9112.381531284038,-24369.704648221094,-3218.5170910974853,-0.058,0.962,0.178,192.0,0.0,0.0,0.0,0.0,0.0,0.0,0.0,0.0,0.0,1676478418.40881,1
483,227.0,31440.589599679664,43185.671351632045,-32886.72511419358,-27492.891549216696,28799.261605651573,9217.032398823787,-24024.23608591987,-2878.055319554248,-0.058,0.962,0.178,192.0,0.0,0.0,0.0,0.0,0.0,0.0,0.0,0.0,0.0,1676478418.408838,1
484,228.0,31583.1043223267,43301.363980932714,-32796.20054914958,-27441.795461391863,28903.890121446864,9324.544289653813,-23592.601548743434,-2301.380312607326,-0.058,0.962,0.178,192.0,0.0,0.0,0.0,0.0,0.0,0.0,0.0,0.0,0.0,1676478418.408864,1
485,229.0,31528.61076934466,43281.649742323134,-32918.55399829793,-27516.182066939124,28756.65918071976,9215.847756367655,-23902.48613387181,-2590.745996325731,-0.058,0.962,0.178,192.0,0.0,0.0,0.0,0.0,0.0,0.0,0.0,0.0,0.0,1676478418.408888,1
486,230.0,31374.383732603044,43159.40805189706,-33020.45560126968,-27575.07891357886,28632.316426314883,9094.56719095316,-24372.72213372256,-3202.1556141562005,-0.058,0.962,0.178,192.0,0.0,0.0,0.0,0.0,0.0,0.0,0.0,0.0,0.0,1676478418.408913,1
487,231.0,31409.20775046441,43166.00181651137,-32915.33534709637,-27512.315215148355,28756.88269816431,9176.106354726118,-24129.691616260006,-2996.787786100839,-0.058,0.962,0.178,192.0,0.0,0.0,0.0,0.0,0.0,0.0,0.0,0.0,0.0,1676478418.408938,1
488,232.0,31563.01010406138,43280.97918998947,-32789.025639179425,-27442.086034069784,28902.839589457464,9310.015655757863,-23625.413909603823,-2360.8136011139873,-0.058,0.962,0.178,192.0,0.0,0.0,0.0,0.0,0.0,0.0,0.0,0.0,0.0,1676478418.408962,1
489,233.0,31554.315275468267,43295.55252737433,-32872.285887275444,-27491.01400268245,28797.853445750887,9237.596003722669,-23793.007289529716,-2465.5538756315564,-0.058,0.962,0.178,192.0,0.0,0.0,0.0,0.0,0.0,0.0,0.0,0.0,0.0,1676478418.408987,1
