,packet,eeg1,eeg2,eeg3,eeg4,eeg5,eeg6,eeg7,eeg8,accel1,accel2,accel3,other1,other2,other3,other4,other5,other6,other7,analog1,analog2,analog3,timestamp,marker
0,0.0,0.0,0.0,0.0,0.0,0.0,0.0,0.0,0.0,0.0,0.0,0.0,192.0,0.0,0.0,0.0,0.0,0.0,0.0,0.0,0.0,0.0,1678557383.7637,0.0
1,1.0,78907.98347091478,58859.98861312731,4178.859791619753,-25024.52135378377,18028.514746250483,33529.27071205029,-19472.37038282995,-13554.455465609488,-0.048,0.87,0.448,192.0,254.0,128.0,27.0,48.0,14.0,0.0,0.0,0.0,0.0,1678557383.822775,0.0
2,2.0,79381.46047371156,58933.59290761864,4146.673279604111,-25062.094636213144,17978.98328053752,33494.156121511,-19508.982540247744,-13612.16766979309,-0.048,0.87,0.448,192.0,0.0,0.0,0.0,0.0,0.0,0.0,0.0,0.0,0.0,1678557383.822809,0.0
3,3.0,78730.22004726173,58699.52543968266,4152.0153465289295,-25073.67283984099,17940.113596929743,33305.01565993019,-19725.973275419867,-13928.735426513604,-0.048,0.87,0.448,192.0,0.0,0.0,0.0,0.0,0.0,0.0,0.0,0.0,0.0,1678557383.822831,0.0
4,4.0,78196.75096234691,58601.26717105713,4176.892838107686,-25039.497022568827,17967.673297843136,33343.907695282425,-19722.732272473844,-13918.587734530895,-0.048,0.87,0.448,192.0,0.0,0.0,0.0,0.0,0.0,0.0,0.0,0.0,0.0,1678557383.822851,0.0
5,5.0,78751.07422483852,58816.08978701709,4161.805410600354,-25019.67102523697,18010.052205330398,33525.22504630387,-19512.335301916042,-13603.137565033147,-0.048,0.87,0.448,192.0,0.0,0.0,0.0,0.0,0.0,0.0,0.0,0.0,0.0,1678557383.822871,0.0
6,6.0,79378.66650565463,58943.80765483471,4126.556709594334,-25050.896412241033,17980.346736949294,33507.94714783992,-19492.1516766729,-13571.398087906611,-0.048,0.87,0.448,192.0,0.0,0.0,0.0,0.0,0.0,0.0,0.0,0.0,0.0,1678557383.822891,0.0
7,7.0,78871.14779605244,58733.90242265492,4128.76953229541,-25070.923575272987,17929.474166569016,33311.29650012213,-19709.477688011848,-13887.36234752683,-0.048,0.87,0.448,192.0,0.0,0.0,0.0,0.0,0.0,0.0,0.0,0.0,0.0,1678557383.822911,0.0
8,8.0,78205.80341885131,58581.61998768091,4160.106678021751,-25041.128699914065,17953.79286453639,33307.42964833137,-19752.169519921485,-13953.277641925531,-0.06,0.866,0.46,192.0,254.0,32.0,27.0,16.0,14.0,96.0,0.0,0.0,0.0,1678557383.822931,0.0
9,9.0,78590.27577522706,58759.13754214496,4159.4137739436355,-25022.062661893688,18009.8510396303,33485.39423768452,-19550.467377956793,-13652.803141212838,-0.06,0.866,0.46,192.0,0.0,0.0,0.0,0.0,0.0,0.0,0.0,0.0,0.0,1678557383.82295,0.0
10,10.0,79338.99215924647,58939.80669257721,4132.368163152714,-25054.33858088715,17994.6965568896,33541.22889533388,-19468.48117929473,-13541.066770680758,-0.06,0.866,0.46,192.0,0.0,0.0,0.0,0.0,0.0,0.0,0.0,0.0,0.0,1678557383.82297,0.0
11,11.0,79017.3952600235,58778.56120807662,4134.893910276164,-25078.925499787987,17941.991143463987,33357.2740384667,-19671.36796371555,-13837.786178324961,-0.06,0.866,0.46,192.0,0.0,0.0,0.0,0.0,0.0,0.0,0.0,0.0,0.0,1678557383.822989,0.0
12,12.0,78261.34750382275,58584.369252248915,4171.0366810603955,-25053.936249486957,17967.069800742844,33284.45205503131,-19763.21128168241,-13975.808200336482,-0.06,0.866,0.46,192.0,0.0,0.0,0.0,0.0,0.0,0.0,0.0,0.0,0.0,1678557383.823009,0.0
13,13.0,78453.72896834958,58710.54484969912,4175.2611607624485,-25034.087900410643,18012.17562105365,33455.845231514606,-19589.627634242494,-13714.628066376217,-0.06,0.866,0.46,192.0,0.0,0.0,0.0,0.0,0.0,0.0,0.0,0.0,0.0,1678557383.823029,0.0
14,14.0,79261.29749551982,58930.68718083944,4145.15336098115,-25057.467825110893,18002.85494361579,33543.419366290495,-19459.786350701615,-13531.924907198538,-0.06,0.866,0.46,192.0,0.0,0.0,0.0,0.0,0.0,0.0,0.0,0.0,0.0,1678557383.823049,0.0
15,15.0,79141.35803477264,58819.755473107754,4125.707343305033,-25097.54450291926,17939.375989362718,33387.29243127018,-19639.628486589016,-13790.06520391288,-0.06,0.866,0.46,192.0,0.0,0.0,0.0,0.0,0.0,0.0,0.0,0.0,0.0,1678557383.823069,0.0
16,16.0,78337.05286229287,58593.84639189797,4147.29912844886,-25084.066401012708,17933.899811971165,33277.36655203898,-19781.33854643566,-14002.205610538198,-0.06,0.866,0.46,192.0,0.0,0.0,0.0,0.0,0.0,0.0,0.0,0.0,0.0,1678557383.882987,0.0
17,17.0,78324.91586505364,58667.94242476731,4155.055183774851,-25048.124795928576,17981.218454983053,33424.32927183262,-19644.255297691263,-13784.879599199248,-0.07,0.866,0.47000000000000003,192.0,253.0,208.0,27.0,16.0,14.0,176.0,0.0,0.0,0.0,1678557383.883027,0.0
18,18.0,79136.75357541486,58906.860221250085,4120.834663013776,-25060.261793167807,18000.731527892534,33563.64769502255,-19476.147827642897,-13536.082331667225,-0.07,0.866,0.47000000000000003,192.0,0.0,0.0,0.0,0.0,0.0,0.0,0.0,0.0,0.0,1678557383.88305,0.0
19,19.0,79243.39374821112,58858.20047357088,4097.410034824614,-25093.02945053929,17942.21466090854,33422.02704215372,-19615.01921594372,-13727.368560715744,-0.07,0.866,0.47000000000000003,192.0,0.0,0.0,0.0,0.0,0.0,0.0,0.0,0.0,0.0,1678557383.88307,0.0
20,20.0,78450.68913110366,58616.198136353276,4123.203947926038,-25082.188854478463,17927.730730501502,33270.705732191294,-19789.67574711749,-13990.895627843813,-0.07,0.866,0.47000000000000003,192.0,0.0,0.0,0.0,0.0,0.0,0.0,0.0,0.0,0.0,1678557383.88309,0.0
21,21.0,78235.44183199905,58626.45758705826,4143.991070269474,-25043.162708659496,17979.27385321544,33377.45766370984,-19687.237702278817,-13840.110759748311,-0.07,0.866,0.47000000000000003,192.0,0.0,0.0,0.0,0.0,0.0,0.0,0.0,0.0,0.0,1678557383.88311,0.0
22,22.0,79000.85496912658,58871.05272663268,4122.511043847924,-25041.01694119179,18004.50897270548,33539.083127866164,-19481.936929456824,-13548.576956817742,-0.07,0.866,0.47000000000000003,192.0,0.0,0.0,0.0,0.0,0.0,0.0,0.0,0.0,0.0,1678557383.883148,0.0
23,23.0,79319.27792063689,58889.8505437196,4095.353674334726,-25077.78556082077,17960.431332639615,33469.34568516561,-19561.196215295342,-13665.677746019095,-0.07,0.866,0.47000000000000003,192.0,0.0,0.0,0.0,0.0,0.0,0.0,0.0,0.0,0.0,1678557383.883169,0.0
24,24.0,78590.52164441606,58651.335078637014,4124.746218293455,-25074.611613108114,17937.56549806184,33292.87866269096,-19759.992630480843,-13962.017174007557,-0.07,0.866,0.47000000000000003,192.0,0.0,0.0,0.0,0.0,0.0,0.0,0.0,0.0,0.0,1678557383.883189,0.0
25,25.0,78193.86758731218,58600.35074953446,4153.490561662979,-25044.414406348995,17983.7442021065,33380.966887589326,-19709.164763589473,-13888.010548116035,-0.07,0.866,0.47000000000000003,192.0,0.0,0.0,0.0,0.0,0.0,0.0,0.0,0.0,0.0,1678557383.883208,0.0
26,26.0,78859.8154616136,58831.82541511362,4133.932785264586,-25045.28612438275,18027.486566005537,33558.57384903119,-19498.61133082048,-13581.434021167044,-0.07,0.866,0.47000000000000003,192.0,0.0,0.0,0.0,0.0,0.0,0.0,0.0,0.0,0.0,1678557383.883228,0.0
27,27.0,79361.6344763797,58917.365541144085,4108.38474135217,-25080.378363177584,17988.37101320875,33480.72272309336,-19520.136060730943,-13615.051044827826,-0.06,0.856,0.47200000000000003,192.0,254.0,32.0,26.0,192.0,14.0,192.0,0.0,0.0,0.0,1678557383.883248,0.0
28,28.0,78741.37356774493,58691.52351516766,4122.466340359013,-25094.7728866068,17935.419730594127,33276.0030956272,-19731.695322000425,-13928.80248174697,-0.06,0.856,0.47200000000000003,192.0,0.0,0.0,0.0,0.0,0.0,0.0,0.0,0.0,0.0,1678557383.883268,0.0
29,29.0,78178.82486329376,58579.764792891125,4143.991070269474,-25063.659258325013,17957.480902371517,33303.76396224069,-19741.328923860663,-13935.99974346158,-0.06,0.856,0.47200000000000003,192.0,0.0,0.0,0.0,0.0,0.0,0.0,0.0,0.0,0.0,1678557383.883288,0.0
30,30.0,78702.95091902625,58788.172458192406,4136.570291110313,-25043.162708659496,18007.101775062296,33500.6604791475,-19526.930991045356,-13619.677855930073,-0.06,0.856,0.47200000000000003,192.0,0.0,0.0,0.0,0.0,0.0,0.0,0.0,0.0,0.0,1678557383.883307,0.0
31,31.0,79363.5790781473,58932.318858184684,4101.656866271122,-25076.48915964236,17980.346736949294,33500.77223786977,-19489.581226060538,-13572.515675129376,-0.06,0.856,0.47200000000000003,192.0,0.0,0.0,0.0,0.0,0.0,0.0,0.0,0.0,0.0,1678557383.943339,0.0
32,32.0,78894.70653470833,58733.88007091047,4103.62381978319,-25094.21409299542,17932.44694858157,33310.000098943725,-19707.51073449978,-13887.27294054901,-0.06,0.856,0.47200000000000003,192.0,0.0,0.0,0.0,0.0,0.0,0.0,0.0,0.0,0.0,1678557383.943378,0.0
33,33.0,78204.97640430646,58572.433420709785,4139.833645800787,-25060.395903634537,17959.760780305958,33299.24890986072,-19760.126740947573,-13966.688688598715,-0.06,0.856,0.47200000000000003,192.0,0.0,0.0,0.0,0.0,0.0,0.0,0.0,0.0,0.0,1678557383.943401,0.0
34,34.0,78549.03680670701,58737.00931513421,4137.442009144069,-25038.826470235166,18011.70623442009,33472.09494973361,-19564.21370079681,-13675.937196724082,-0.06,0.856,0.47200000000000003,192.0,0.0,0.0,0.0,0.0,0.0,0.0,0.0,0.0,0.0,1678557383.943421,0.0
35,35.0,79314.27112987889,58928.85433779411,4105.523718061891,-25064.262755425305,18008.442879729617,33528.01901436079,-19471.252795607186,-13546.095913183202,-0.06,0.856,0.47200000000000003,192.0,0.0,0.0,0.0,0.0,0.0,0.0,0.0,0.0,0.0,1678557383.943441,0.0
36,36.0,79033.60027475361,58775.90135048644,4102.707398260522,-25093.320023217206,17954.35165814777,33359.576268145596,-19670.56330091516,-13836.713294591105,-0.06,0.856,0.47200000000000003,192.0,0.0,0.0,0.0,0.0,0.0,0.0,0.0,0.0,0.0,1678557383.943461,0.0
37,37.0,78265.92961143609,58576.412031222826,4133.8210265423095,-25069.738932816857,17952.7870360359,33288.318906822074,-19772.62136609809,-13991.655587155294,-0.062,0.866,0.47600000000000003,192.0,254.0,16.0,27.0,16.0,14.0,224.0,0.0,0.0,0.0,1678557383.943481,0.0
38,38.0,78419.48609584404,58694.54100066912,4137.889044033175,-25037.127737656563,17993.13193477773,33448.73737677782,-19604.44684081636,-13729.693142139095,-0.062,0.866,0.47600000000000003,192.0,0.0,0.0,0.0,0.0,0.0,0.0,0.0,0.0,0.0,1678557383.943501,0.0
39,39.0,79233.62603588415,58920.51713711228,4105.434311084069,-25057.356066388616,17992.930769077633,33550.86249719411,-19465.32958332653,-13530.896726953593,-0.062,0.866,0.47600000000000003,192.0,0.0,0.0,0.0,0.0,0.0,0.0,0.0,0.0,0.0,1678557383.943521,0.0
40,40.0,79168.76127347485,58828.76322612324,4097.991180180452,-25081.25008121134,17934.391550349184,33420.79769620868,-19626.150384682463,-13765.2994710564,-0.062,0.866,0.47600000000000003,192.0,0.0,0.0,0.0,0.0,0.0,0.0,0.0,0.0,0.0,1678557383.943541,0.0
41,41.0,78370.6028307203,58600.64132221238,4134.24570968696,-25058.227784422375,17938.97365796252,33306.62498553097,-19765.96054625041,-13979.138610260321,-0.062,0.866,0.47600000000000003,192.0,0.0,0.0,0.0,0.0,0.0,0.0,0.0,0.0,0.0,1678557383.94356,0.0
42,42.0,78320.02083301793,58661.32630840854,4150.58483488379,-25022.129717127053,17992.260216743973,33400.0329256097,-19633.25823941925,-13774.955424661091,-0.062,0.866,0.47600000000000003,192.0,0.0,0.0,0.0,0.0,0.0,0.0,0.0,0.0,0.0,1678557383.94358,0.0
43,43.0,79127.90228461055,58904.69210203792,4134.1115992202285,-25031.986836431843,18010.76746115297,33543.93345641297,-19451.18092908632,-13519.832613448218,-0.062,0.866,0.47600000000000003,192.0,0.0,0.0,0.0,0.0,0.0,0.0,0.0,0.0,0.0,1678557383.943617,0.0
44,44.0,79276.85430966072,58875.81364820166,4118.7335990349775,-25072.19762470694,17965.952213520075,33451.17371692344,-19568.885215387967,-13698.847734790772,-0.062,0.866,0.47600000000000003,192.0,0.0,0.0,0.0,0.0,0.0,0.0,0.0,0.0,0.0,1678557383.943637,0.0
45,45.0,78493.69388743567,58630.592659782495,4141.018288256918,-25071.21414795091,17946.79676852188,33278.23827007273,-19752.795368766234,-13971.404906678785,-0.062,0.866,0.47600000000000003,192.0,0.0,0.0,0.0,0.0,0.0,0.0,0.0,0.0,0.0,1678557383.943656,0.0
46,46.0,78238.66048320061,58623.32834283452,4163.235922245493,-25039.362912102093,17984.727678862535,33393.059181339646,-19670.98798405981,-13841.02718127098,-0.062,0.866,0.47600000000000003,192.0,0.0,0.0,0.0,0.0,0.0,0.0,0.0,0.0,0.0,1678557384.002244,0.0
47,47.0,78990.37200097705,58870.91861616595,4148.327308693803,-25039.698188268925,18028.20182182811,33573.30364862724,-19464.36845831495,-13546.431189350033,-0.062,0.874,0.47600000000000003,192.0,254.0,16.0,27.0,80.0,14.0,224.0,0.0,0.0,0.0,1678557384.002284,0.0
48,48.0,79354.50426989845,58908.1566224285,4129.14951195115,-25071.6164793511,17990.337966720817,33471.60321135559,-19529.546145146625,-13647.595184754753,-0.062,0.874,0.47600000000000003,192.0,0.0,0.0,0.0,0.0,0.0,0.0,0.0,0.0,0.0,1678557384.002307,0.0
49,49.0,78640.70131071823,58673.21743645876,4152.8423610737755,-25070.029505494775,17952.205890680063,33316.59386355804,-19732.34352258963,-13944.448702865686,-0.062,0.874,0.47600000000000003,192.0,0.0,0.0,0.0,0.0,0.0,0.0,0.0,0.0,0.0,1678557384.002328,0.0
50,50.0,78202.58476764975,58608.844412427476,4177.831611374809,-25037.53006905676,17986.739335863513,33363.912506569926,-19699.978196618344,-13885.775373670504,-0.062,0.874,0.47600000000000003,192.0,0.0,0.0,0.0,0.0,0.0,0.0,0.0,0.0,0.0,1678557384.002348,0.0
51,51.0,78837.41901366938,58834.440569214894,4158.363241954236,-25031.070414909176,18024.446728759616,33517.17841829997,-19495.169162174363,-13575.01907050837,-0.062,0.874,0.47600000000000003,192.0,0.0,0.0,0.0,0.0,0.0,0.0,0.0,0.0,0.0,1678557384.002368,0.0
52,52.0,79381.68399115611,58932.00593376231,4131.585852096779,-25066.72144731539,17986.8957980747,33486.48947316283,-19500.198304676807,-13592.4087276946,-0.062,0.874,0.47600000000000003,192.0,0.0,0.0,0.0,0.0,0.0,0.0,0.0,0.0,0.0,1678557384.002387,0.0
53,53.0,78787.68638225632,58712.601210189016,4147.455590660046,-25077.092656742654,17946.863823755244,33298.757171482706,-19716.853763682102,-13911.345769327376,-0.062,0.874,0.47600000000000003,192.0,0.0,0.0,0.0,0.0,0.0,0.0,0.0,0.0,0.0,1678557384.002407,0.0
54,54.0,78188.19024422053,58589.04076684007,4179.507992208957,-25045.174365660474,17961.481864629015,33325.02047121769,-19737.57383079217,-13933.675162038227,-0.062,0.874,0.47600000000000003,192.0,0.0,0.0,0.0,0.0,0.0,0.0,0.0,0.0,0.0,1678557384.002427,0.0
55,55.0,78674.85477624593,58786.51842910272,4169.360300226248,-25033.23853412134,18001.625597670747,33516.17258979948,-19530.797842836124,-13628.685608945563,-0.062,0.874,0.47600000000000003,192.0,0.0,0.0,0.0,0.0,0.0,0.0,0.0,0.0,0.0,1678557384.002447,0.0
56,56.0,79356.89590655518,58938.66675360999,4141.353564423748,-25071.303554928727,17986.292300974404,33529.382470772565,-19480.081734667034,-13569.319375672267,-0.062,0.874,0.47600000000000003,192.0,0.0,0.0,0.0,0.0,0.0,0.0,0.0,0.0,0.0,1678557384.002466,0.0
57,57.0,78926.55777055715,58755.091876398554,4155.256349474949,-25086.927424302987,17937.476091084016,33332.75417479923,-19683.348498743595,-13870.442076974163,-0.064,0.872,0.47200000000000003,192.0,254.0,0.0,27.0,64.0,14.0,192.0,0.0,0.0,0.0,1678557384.002486,0.0
58,58.0,78221.80726788132,58586.93970286128,4192.472003993035,-25052.14810993053,17964.566405363847,33329.80374453113,-19744.748740762323,-13966.152246731788,-0.064,0.872,0.47200000000000003,192.0,0.0,0.0,0.0,0.0,0.0,0.0,0.0,0.0,0.0,1678557384.002506,0.0
59,59.0,78530.97659718712,58740.9655739028,4189.141594069194,-25032.657388765503,18006.40887098418,33493.932604066445,-19559.54218620565,-13684.18499042809,-0.064,0.872,0.47200000000000003,192.0,0.0,0.0,0.0,0.0,0.0,0.0,0.0,0.0,0.0,1678557384.002526,0.0
60,60.0,79315.1204961682,58940.8125210777,4154.786962841387,-25059.188909433953,17990.22620799854,33549.94607567145,-19464.65903099287,-13544.575994560242,-0.064,0.872,0.47200000000000003,192.0,0.0,0.0,0.0,0.0,0.0,0.0,0.0,0.0,0.0,1678557384.002546,0.0
61,61.0,79080.69540032094,58802.65638859945,4149.623709872211,-25086.659203369523,17931.821099736822,33358.48103266729,-19660.28149846572,-13823.63752408475,-0.064,0.872,0.47200000000000003,192.0,0.0,0.0,0.0,0.0,0.0,0.0,0.0,0.0,0.0,1678557384.06242,0.0
62,62.0,78291.2764896484,58591.365348263425,4183.531306210913,-25058.47365361138,17946.394437121682,33275.10902584899,-19764.328868905173,-13984.681842885238,-0.064,0.872,0.47200000000000003,192.0,0.0,0.0,0.0,0.0,0.0,0.0,0.0,0.0,0.0,1678557384.062459,0.0
63,63.0,78391.56876701937,58689.35539595549,4187.241695790493,-25031.13747014254,17984.057126528875,33438.567333050654,-19606.100869906055,-13740.980773089024,-0.064,0.872,0.47200000000000003,192.0,0.0,0.0,0.0,0.0,0.0,0.0,0.0,0.0,0.0,1678557384.062482,0.0
64,64.0,79207.07216347125,58913.029302719755,4152.0153465289295,-25054.20447042042,17997.535228435427,33541.56417150071,-19458.065266378555,-13535.456482822477,-0.064,0.872,0.47200000000000003,192.0,0.0,0.0,0.0,0.0,0.0,0.0,0.0,0.0,0.0,1678557384.062519,0.0
65,65.0,79183.91575621555,58829.94786857937,4138.067857988818,-25089.743744104355,17948.69666680058,33394.08736158459,-19616.02504444421,-13763.220758822055,-0.064,0.872,0.47200000000000003,192.0,0.0,0.0,0.0,0.0,0.0,0.0,0.0,0.0,0.0,1678557384.06254,0.0
66,66.0,78377.57657499035,58594.53929597608,4166.074593791317,-25082.166502734006,17932.469300326025,33313.44226758984,-19773.314270176204,-13999.29988375901,-0.064,0.872,0.47200000000000003,192.0,0.0,0.0,0.0,0.0,0.0,0.0,0.0,0.0,0.0,1678557384.062559,0.0
67,67.0,78279.29595462036,58644.24957564469,4183.77717539992,-25048.214202906394,17974.110600246262,33458.549792593694,-19650.469082649837,-13812.34989313482,-0.066,0.868,0.47600000000000003,192.0,253.0,240.0,27.0,32.0,14.0,224.0,0.0,0.0,0.0,1678557384.062579,0.0
68,68.0,79079.08607472017,58889.42586057495,4162.565369911834,-25053.10923494211,18007.325292506852,33567.80511949123,-19467.00596416068,-13545.470064338455,-0.066,0.868,0.47600000000000003,192.0,0.0,0.0,0.0,0.0,0.0,0.0,0.0,0.0,0.0,1678557384.062599,0.0
69,69.0,79275.02146661538,58876.73006972433,4146.762686581932,-25080.06543875521,17966.376896664726,33409.57712049212,-19575.814256169113,-13702.558124370353,-0.066,0.868,0.47600000000000003,192.0,0.0,0.0,0.0,0.0,0.0,0.0,0.0,0.0,0.0,1678557384.062619,0.0
70,70.0,78503.43924801819,58635.28652611811,4176.088175307295,-25073.53872937426,17937.40903585065,33259.70867391928,-19758.67387755798,-13977.61869163736,-0.066,0.868,0.47600000000000003,192.0,0.0,0.0,0.0,0.0,0.0,0.0,0.0,0.0,0.0,1678557384.062638,0.0
71,71.0,78209.71497413098,58616.24283984218,4191.823803403831,-25046.046083694233,17960.587794850802,33358.995122789755,-19687.95295810139,-13864.2729955045,-0.066,0.868,0.47600000000000003,192.0,0.0,0.0,0.0,0.0,0.0,0.0,0.0,0.0,0.0,1678557384.062658,0.0
72,72.0,78936.32548288412,58853.93129037992,4166.8122013583425,-25047.96833371739,17991.634367899223,33524.10745908111,-19490.38588886093,-13570.481666383943,-0.066,0.868,0.47600000000000003,192.0,0.0,0.0,0.0,0.0,0.0,0.0,0.0,0.0,0.0,1678557384.062678,0.0
73,73.0,79336.53346735639,58904.58034331565,4143.253462702449,-25082.09944750064,17959.291393672396,33453.99003672481,-19546.19819476583,-13655.932385436581,-0.066,0.868,0.47600000000000003,192.0,0.0,0.0,0.0,0.0,0.0,0.0,0.0,0.0,0.0,1678557384.062698,0.0
74,74.0,78648.6138282554,58673.35154692549,4167.616864158734,-25079.64075561056,17933.6315910377,33282.328639308056,-19750.91782223199,-13957.613880349862,-0.066,0.868,0.47600000000000003,192.0,0.0,0.0,0.0,0.0,0.0,0.0,0.0,0.0,0.0,1678557384.062718,0.0
75,75.0,78178.10960747118,58595.768641921124,4188.426338246624,-25048.974162217877,17967.002745509475,33348.310988940124,-19724.408653307994,-13913.647999006273,-0.066,0.868,0.47600000000000003,192.0,0.0,0.0,0.0,0.0,0.0,0.0,0.0,0.0,0.0,1678557384.062738,0.0
76,76.0,78787.50756830067,58818.25790622925,4173.0930415502835,-25035.786632989246,17997.244655757506,33531.192962073445,-19514.615179850483,-13598.60016090872,-0.066,0.868,0.47600000000000003,192.0,0.0,0.0,0.0,0.0,0.0,0.0,0.0,0.0,0.0,1678557384.123921,0.0
77,77.0,79357.40999667764,58923.646381336024,4141.845302801765,-25069.78363630577,17963.739390819002,33500.41460995848,-19511.62004609347,-13596.54380041883,-0.066,0.868,0.47200000000000003,192.0,253.0,240.0,27.0,32.0,14.0,192.0,0.0,0.0,0.0,1678557384.123961,0.0
78,78.0,78793.20726313678,58712.19887878882,4153.11058200724,-25082.7699998343,17917.717148985525,33312.8164187451,-19726.42031030897,-13913.312722839442,-0.066,0.868,0.47200000000000003,192.0,0.0,0.0,0.0,0.0,0.0,0.0,0.0,0.0,0.0,1678557384.123984,0.0
79,79.0,78173.63925858012,58583.58694119298,4185.252390533971,-25051.410502363506,17938.41486435114,33312.727011767274,-19753.845900755634,-13949.76841804605,-0.066,0.868,0.47200000000000003,192.0,0.0,0.0,0.0,0.0,0.0,0.0,0.0,0.0,0.0,1678557384.124005,0.0
80,80.0,78622.77521166507,58772.54858881815,4171.39430897168,-25043.699150526423,17978.916225304154,33487.96468829688,-19556.8152733821,-13652.780789468383,-0.066,0.868,0.47200000000000003,192.0,0.0,0.0,0.0,0.0,0.0,0.0,0.0,0.0,0.0,1678557384.124025,0.0
81,81.0,79333.96301674402,58935.47045415288,4137.039677743874,-25078.81374106571,17973.26123395696,33502.113342537086,-19498.23135116474,-13574.326166430255,-0.066,0.868,0.47200000000000003,192.0,0.0,0.0,0.0,0.0,0.0,0.0,0.0,0.0,0.0,1678557384.124045,0.0
82,82.0,78941.62284632002,58756.34357408805,4140.191273712072,-25102.081907043685,17930.59175379178,33322.07004094959,-19705.56613273217,-13878.13107706679,-0.066,0.868,0.47200000000000003,192.0,0.0,0.0,0.0,0.0,0.0,0.0,0.0,0.0,0.0,1678557384.124064,0.0
83,83.0,78217.31456724579,58578.848371368455,4180.1338410537055,-25070.789464806257,17937.587849806292,33301.66289826189,-19777.985784767367,-13990.917979588268,-0.066,0.868,0.47200000000000003,192.0,0.0,0.0,0.0,0.0,0.0,0.0,0.0,0.0,0.0,1678557384.124084,0.0
84,84.0,78481.4227797297,58723.75473067221,4183.35249225527,-25044.68262728246,17974.959966535567,33461.76844379526,-19596.042584901166,-13712.884630308705,-0.066,0.868,0.47200000000000003,192.0,0.0,0.0,0.0,0.0,0.0,0.0,0.0,0.0,0.0,1678557384.124104,0.0
85,85.0,79274.84265265973,58930.933050028456,4157.8268000873095,-25067.05672348222,17967.852111798777,33539.03842437726,-19480.23819687822,-13554.67898305404,-0.066,0.868,0.47200000000000003,192.0,0.0,0.0,0.0,0.0,0.0,0.0,0.0,0.0,0.0,1678557384.124123,0.0
86,86.0,79082.23767068835,58801.47174614332,4151.657718617645,-25100.24906399835,17917.15835537414,33378.06116081013,-19663.097818267088,-13828.0631694869,-0.07200000000000001,0.87,0.47400000000000003,192.0,253.0,192.0,27.0,48.0,14.0,208.0,0.0,0.0,0.0,1678557384.124159,0.0
87,87.0,78294.33867863879,58587.92317961731,4182.748995154977,-25077.025601509285,17923.17097463262,33280.58520324054,-19786.568854638204,-14010.609866453395,-0.07200000000000001,0.87,0.47400000000000003,192.0,0.0,0.0,0.0,0.0,0.0,0.0,0.0,0.0,0.0,1678557384.124179,0.0
88,88.0,78366.53481322943,58688.50602966619,4191.555582470368,-25036.166612644985,17979.65383287118,33420.57417876413,-19629.12316669502,-13767.802866435393,-0.07200000000000001,0.87,0.47400000000000003,192.0,0.0,0.0,0.0,0.0,0.0,0.0,0.0,0.0,0.0,1678557384.124199,0.0
89,89.0,79184.47454982693,58917.94668649992,4156.664509375633,-25053.19864191993,17986.22524574104,33545.74394771385,-19473.644432263904,-13539.658610780074,-0.07200000000000001,0.87,0.47400000000000003,192.0,0.0,0.0,0.0,0.0,0.0,0.0,0.0,0.0,0.0,1678557384.124219,0.0
90,90.0,79207.38508789362,58846.10817982056,4139.878349289697,-25085.854540569133,17921.271076353918,33391.583966205595,-19628.40791087245,-13752.62603195024,-0.07200000000000001,0.87,0.47400000000000003,192.0,0.0,0.0,0.0,0.0,0.0,0.0,0.0,0.0,0.0,1678557384.124239,0.0
91,91.0,78408.04200268292,58607.90563916036,4173.0930415502835,-25073.695191585448,17918.63357050819,33267.75530192319,-19789.273415717296,-13994.695424401216,-0.07200000000000001,0.87,0.47400000000000003,192.0,0.0,0.0,0.0,0.0,0.0,0.0,0.0,0.0,0.0,1678557384.182327,0.0
92,92.0,78265.39316956916,58636.62763078543,4188.068710335339,-25045.889621483046,17965.214605953053,33392.41098075044,-19671.680888137926,-13821.290590916944,-0.07200000000000001,0.87,0.47400000000000003,192.0,0.0,0.0,0.0,0.0,0.0,0.0,0.0,0.0,0.0,1678557384.182367,0.0
93,93.0,79056.39905409802,58885.626064017546,4165.404041457658,-25051.43285410796,18003.9501790941,33550.92955242748,-19478.628871277437,-13546.833520750228,-0.07200000000000001,0.87,0.47400000000000003,192.0,0.0,0.0,0.0,0.0,0.0,0.0,0.0,0.0,0.0,1678557384.182389,0.0
94,94.0,79298.78137097137,58882.74268898281,4145.600395870256,-25086.726258602892,17952.764684291447,33449.47498434484,-19578.697631203846,-13692.164563198634,-0.07200000000000001,0.87,0.47400000000000003,192.0,0.0,0.0,0.0,0.0,0.0,0.0,0.0,0.0,0.0,1678557384.182409,0.0
95,95.0,78537.97269320163,58634.638325528904,4168.10860253675,-25088.469694670403,17915.616085006724,33290.3082120786,-19774.90124403253,-13981.373784705853,-0.07200000000000001,0.87,0.47400000000000003,192.0,0.0,0.0,0.0,0.0,0.0,0.0,0.0,0.0,0.0,1678557384.182429,0.0
96,96.0,78204.64112813963,58601.7812611796,4185.92294286763,-25058.697171055934,17955.98333549301,33374.127253786,-19714.23860958083,-13880.79093465697,-0.064,0.876,0.47400000000000003,192.0,254.0,0.0,27.0,96.0,14.0,208.0,0.0,0.0,0.0,1678557384.182449,0.0
97,97.0,78911.33623258308,58842.353086752075,4166.007538557951,-25055.52322334328,17997.870504602255,33565.27937236779,-19513.363482160985,-13581.188151978035,-0.064,0.876,0.47400000000000003,192.0,0.0,0.0,0.0,0.0,0.0,0.0,0.0,0.0,0.0,1678557384.182469,0.0
98,98.0,79353.94547628707,58906.524945083256,4145.242767958971,-25094.102334273142,17949.009591222955,33501.53219718125,-19553.90954660291,-13647.908109177126,-0.064,0.876,0.47400000000000003,192.0,0.0,0.0,0.0,0.0,0.0,0.0,0.0,0.0,0.0,1678557384.182489,0.0
99,99.0,78684.80130252855,58675.18438997083,4167.34864322527,-25098.39386920856,17921.047558909366,33287.73776146624,-19754.650563556024,-13956.406886149274,-0.064,0.876,0.47400000000000003,192.0,0.0,0.0,0.0,0.0,0.0,0.0,0.0,0.0,0.0,1678557384.182508,0.0
100,100.0,78171.96287774597,58582.20113303675,4186.593495201289,-25067.503758371327,17956.31861165984,33299.226558116265,-19746.805101252212,-13935.552708572473,-0.064,0.876,0.47400000000000003,192.0,0.0,0.0,0.0,0.0,0.0,0.0,0.0,0.0,0.0,1678557384.182528,0.0
101,101.0,78750.24721029369,58801.49409788777,4172.467192705535,-25054.00330472032,17996.9987865685,33493.88790057754,-19536.564592905594,-13623.03061759837,-0.064,0.876,0.47400000000000003,192.0,0.0,0.0,0.0,0.0,0.0,0.0,0.0,0.0,0.0,1678557384.182547,0.0
102,102.0,79359.35459844525,58923.579326102656,4140.191273712072,-25090.48135167138,17972.143646734195,33491.63037438755,-19519.711377586293,-13606.087995301246,-0.064,0.876,0.47400000000000003,192.0,0.0,0.0,0.0,0.0,0.0,0.0,0.0,0.0,0.0,1678557384.182567,0.0
103,103.0,78828.59007460953,58715.55164045712,4151.523608150913,-25104.6747094005,17931.79874799237,33293.146883624424,-19729.03546441024,-13918.140699641788,-0.064,0.876,0.47400000000000003,192.0,0.0,0.0,0.0,0.0,0.0,0.0,0.0,0.0,0.0,1678557384.182587,0.0
104,104.0,78184.01046800739,58574.378022477395,4186.526439967924,-25074.85748229712,17952.74233254699,33307.608462287004,-19762.116046204097,-13972.38838343482,-0.064,0.876,0.47400000000000003,192.0,0.0,0.0,0.0,0.0,0.0,0.0,0.0,0.0,0.0,1678557384.182607,0.0
105,105.0,78602.65864165529,58755.516559543204,4181.7208149100325,-25053.15393843102,17995.14359177871,33488.2552609748,-19560.10097981703,-13667.577644297797,-0.064,0.876,0.47400000000000003,192.0,0.0,0.0,0.0,0.0,0.0,0.0,0.0,0.0,0.0,1678557384.182626,0.0
106,106.0,79338.96980750201,58933.659962852,4150.741297094977,-25076.936194531467,17974.535283390916,33518.13954331155,-19486.608444047983,-13564.893730270116,-0.062,0.868,0.47400000000000003,192.0,254.0,16.0,27.0,32.0,14.0,208.0,0.0,0.0,0.0,1678557384.242695,0.0
107,107.0,78988.87443409854,58769.06171668312,4153.82583782981,-25096.695136629958,17912.956227416544,33334.117631211004,-19691.7974581477,-13863.848312359849,-0.062,0.868,0.47400000000000003,192.0,0.0,0.0,0.0,0.0,0.0,0.0,0.0,0.0,0.0,1678557384.242751,0.0
108,108.0,78244.87426815918,58582.156429547846,4188.314579524348,-25070.14126421705,17926.523736300915,33292.0069446572,-19778.075191745185,-13995.72360464616,-0.062,0.868,0.47400000000000003,192.0,0.0,0.0,0.0,0.0,0.0,0.0,0.0,0.0,0.0,1678557384.242774,0.0
109,109.0,78467.43058770068,58712.51180321119,4180.1338410537055,-25051.38815061905,17983.453629428583,33452.20189716839,-19602.055204159642,-13724.976924059025,-0.062,0.868,0.47400000000000003,192.0,0.0,0.0,0.0,0.0,0.0,0.0,0.0,0.0,0.0,1678557384.242794,0.0
110,110.0,79276.74255093843,58926.19448020393,4146.96385228203,-25078.858444554622,17996.93173133513,33556.852764708136,-19479.14296139991,-13552.488512097421,-0.062,0.868,0.47400000000000003,192.0,0.0,0.0,0.0,0.0,0.0,0.0,0.0,0.0,0.0,1678557384.242814,0.0
111,111.0,79138.11703182662,58819.37549345202,4154.652852374656,-25099.19853200895,17957.369143649237,33394.310879029144,-19644.322352924628,-13804.459727342097,-0.062,0.868,0.47400000000000003,192.0,0.0,0.0,0.0,0.0,0.0,0.0,0.0,0.0,0.0,1678557384.242834,0.0
112,112.0,78336.2929029814,58589.53250521809,4181.810221887854,-25085.295746957752,17946.17091967713,33276.89716540541,-19774.387153910062,-14000.931561104246,-0.062,0.868,0.47400000000000003,192.0,0.0,0.0,0.0,0.0,0.0,0.0,0.0,0.0,0.0,1678557384.242854,0.0
113,113.0,78358.0411503364,58666.13193346643,4190.661512692155,-25052.10340644162,17981.956062550078,33418.651928740976,-19634.018198730733,-13778.129372373745,-0.062,0.868,0.47400000000000003,192.0,0.0,0.0,0.0,0.0,0.0,0.0,0.0,0.0,0.0,1678557384.242874,0.0
114,114.0,79173.36573283264,58904.40152936,4160.665471633133,-25061.602897835124,18009.404004741195,33537.9655406434,-19471.72218224075,-13539.435093335522,-0.062,0.868,0.47400000000000003,192.0,0.0,0.0,0.0,0.0,0.0,0.0,0.0,0.0,0.0,1678557384.242894,0.0
115,115.0,79237.98462605293,58847.78456065471,4142.851131302254,-25095.286976729272,17949.41192262315,33402.60337622206,-19616.20385839985,-13743.931203357126,-0.062,0.868,0.47400000000000003,192.0,0.0,0.0,0.0,0.0,0.0,0.0,0.0,0.0,0.0,1678557384.242914,0.0
116,116.0,78442.35193042182,58610.78901419509,4174.277684006415,-25086.39098243606,17932.961038704045,33277.50066250571,-19782.657299358525,-14002.607941938395,-0.06,0.876,0.47600000000000003,192.0,254.0,32.0,27.0,96.0,14.0,224.0,0.0,0.0,0.0,1678557384.242933,0.0
117,117.0,78263.78384396838,58633.27486911713,4191.06384409235,-25054.29387739824,17970.131989733218,33390.19815804937,-19678.65463240798,-13842.480044660575,-0.06,0.876,0.47600000000000003,192.0,0.0,0.0,0.0,0.0,0.0,0.0,0.0,0.0,0.0,1678557384.242953,0.0
118,118.0,79041.57984752415,58878.495857536305,4167.34864322527,-25054.450339609426,17990.85205684329,33538.09965111013,-19485.557912058583,-13559.059924967281,-0.06,0.876,0.47600000000000003,192.0,0.0,0.0,0.0,0.0,0.0,0.0,0.0,0.0,0.0,1678557384.242973,0.0
119,119.0,79329.00092947495,58886.63189251803,4150.182503483594,-25085.988651035866,17949.6354400677,33431.794754480696,-19570.15926482192,-13685.794316028872,-0.06,0.876,0.47600000000000003,192.0,0.0,0.0,0.0,0.0,0.0,0.0,0.0,0.0,0.0,1678557384.242993,0.0
120,120.0,78583.57025189046,58642.752008766176,4173.651835161667,-25086.01100278032,17922.031035665397,33278.3053253061,-19763.501854360326,-13975.092944513912,-0.06,0.876,0.47600000000000003,192.0,0.0,0.0,0.0,0.0,0.0,0.0,0.0,0.0,0.0,1678557384.243013,0.0
121,121.0,78211.27959624286,58600.19428732328,4194.729530183021,-25054.875022754077,17965.058143741866,33386.554823703154,-19709.924722900956,-13889.575170227907,-0.06,0.876,0.47600000000000003,192.0,0.0,0.0,0.0,0.0,0.0,0.0,0.0,0.0,0.0,1678557384.302575,0.0
122,122.0,78895.19827308635,58835.155825037466,4174.523553195423,-25047.63305755056,18004.240751772017,33557.38920657506,-19502.209961677785,-13581.277558955857,-0.06,0.876,0.47600000000000003,192.0,0.0,0.0,0.0,0.0,0.0,0.0,0.0,0.0,0.0,1678557384.302613,0.0
123,123.0,79371.40218870666,58912.8057852752,4150.406020928147,-25075.39392416405,17960.69955357308,33466.48466187533,-19531.736616103248,-13622.203603053524,-0.06,0.876,0.47600000000000003,192.0,0.0,0.0,0.0,0.0,0.0,0.0,0.0,0.0,0.0,1678557384.302633,0.0
124,124.0,78722.9333785693,58681.57698888505,4166.96866356953,-25087.48621791437,17927.21664037903,33284.96614515378,-19745.66516228499,-13936.17855741722,-0.06,0.876,0.47600000000000003,192.0,0.0,0.0,0.0,0.0,0.0,0.0,0.0,0.0,0.0,1678557384.302652,0.0
125,125.0,78181.44001739503,58578.40133647935,4191.890858637197,-25062.251098424327,17956.117445959742,33330.78722128716,-19744.368761106583,-13934.122196927334,-0.06,0.876,0.47600000000000003,192.0,0.0,0.0,0.0,0.0,0.0,0.0,0.0,0.0,0.0,1678557384.30267,0.0
126,126.0,78731.67291065132,58796.487307129784,4178.122184052728,-25047.856574995112,17996.08236504583,33508.193017028934,-19534.664694626892,-13621.913030375605,-0.068,0.862,0.47400000000000003,192.0,253.0,224.0,26.0,240.0,14.0,208.0,0.0,0.0,0.0,1678557384.302688,0.0
127,127.0,79369.41288345015,58929.61429710559,4143.365221424726,-25081.54065388926,17975.965795036056,33492.56914765467,-19504.892171012423,-13586.26199796939,-0.068,0.862,0.47400000000000003,192.0,0.0,0.0,0.0,0.0,0.0,0.0,0.0,0.0,0.0,1678557384.302706,0.0
128,128.0,78872.31008676412,58729.67794295287,4158.385593698692,-25090.436648182473,17924.042692666375,33310.06715417709,-19713.27748456925,-13895.18545808619,-0.068,0.862,0.47400000000000003,192.0,0.0,0.0,0.0,0.0,0.0,0.0,0.0,0.0,0.0,1678557384.302741,0.0
129,129.0,78201.04249728234,58578.848371368455,4194.036626104907,-25056.082016954664,17939.241878895984,33307.87668322047,-19758.539767091246,-13961.212511207166,-0.068,0.862,0.47400000000000003,192.0,0.0,0.0,0.0,0.0,0.0,0.0,0.0,0.0,0.0,1678557384.302759,0.0
130,130.0,78581.98327803412,58753.8178269646,4192.270838292938,-25031.226877120363,17985.577045151837,33469.34568516561,-19556.502348959726,-13657.854635459738,-0.068,0.862,0.47400000000000003,192.0,0.0,0.0,0.0,0.0,0.0,0.0,0.0,0.0,0.0,1678557384.302777,0.0
131,131.0,79335.30412141135,58934.822253563674,4159.816105343832,-25060.53001410127,17975.36229793576,33510.20467402991,-19469.75522872868,-13540.44092183601,-0.068,0.862,0.47400000000000003,192.0,0.0,0.0,0.0,0.0,0.0,0.0,0.0,0.0,0.0,1678557384.302795,0.0
132,132.0,79019.40691702449,58772.7721062627,4159.123201265717,-25089.654337126536,17921.36048333174,33331.92716025438,-19670.451542192885,-13838.769655080994,-0.068,0.862,0.47400000000000003,192.0,0.0,0.0,0.0,0.0,0.0,0.0,0.0,0.0,0.0,1678557384.302813,0.0
133,133.0,78259.33584682178,58580.10006905795,4191.644989448188,-25064.039237980753,17943.667524298136,33277.32184855006,-19765.334697405662,-13983.899531829302,-0.068,0.862,0.47400000000000003,192.0,0.0,0.0,0.0,0.0,0.0,0.0,0.0,0.0,0.0,1678557384.30283,0.0
134,134.0,78448.3198461914,58708.734358398244,4190.393291758692,-25043.989723204344,17984.951196307087,33458.7956617827,-19597.54015177967,-13723.367598458242,-0.068,0.862,0.47400000000000003,192.0,0.0,0.0,0.0,0.0,0.0,0.0,0.0,0.0,0.0,1678557384.302848,0.0
135,135.0,79260.13520480815,58929.726055827865,4158.564407654334,-25063.592203091648,17987.923978319643,33545.229857591374,-19469.03997290611,-13534.473006066442,-0.068,0.862,0.47400000000000003,192.0,0.0,0.0,0.0,0.0,0.0,0.0,0.0,0.0,0.0,1678557384.302866,0.0
136,136.0,79143.48145049589,58815.866269572536,4144.549863880857,-25095.86812208511,17932.178727648108,33383.80555913515,-19643.74120756879,-13784.700785243605,-0.062,0.864,0.47400000000000003,192.0,254.0,16.0,27.0,0.0,14.0,208.0,0.0,0.0,0.0,1678557384.363189,0.0
137,137.0,78331.15200175668,58584.77158364911,4174.59060842879,-25081.652412611536,17923.618009521724,33301.37232558398,-19782.076154002687,-13993.264912756076,-0.062,0.864,0.47400000000000003,192.0,0.0,0.0,0.0,0.0,0.0,0.0,0.0,0.0,0.0,1678557384.363229,0.0
138,138.0,78313.1364957257,58655.42544787234,4182.9501608550745,-25052.818662264188,17980.480847416027,33445.58578080962,-19646.51282388125,-13780.543360774918,-0.062,0.864,0.47400000000000003,192.0,0.0,0.0,0.0,0.0,0.0,0.0,0.0,0.0,0.0,1678557384.363251,0.0
139,139.0,79124.0801363087,58893.47152632136,4152.976471540507,-25060.015923978797,18010.163964052674,33528.93543588346,-19477.578339288037,-13533.10954965467,-0.062,0.864,0.47400000000000003,192.0,0.0,0.0,0.0,0.0,0.0,0.0,0.0,0.0,0.0,1678557384.363272,0.0
140,140.0,79230.60855038269,58843.51537746375,4134.491578875969,-25090.615462138114,17951.60239357977,33394.15441681795,-19609.16305889643,-13725.133386270212,-0.062,0.864,0.47400000000000003,192.0,0.0,0.0,0.0,0.0,0.0,0.0,0.0,0.0,0.0,1678557384.363291,0.0
141,141.0,78439.6697210872,58606.92216240432,4163.258273989949,-25078.72433408789,17933.318666615327,33281.479273018755,-19781.003270268833,-13985.262988241077,-0.062,0.864,0.47400000000000003,192.0,0.0,0.0,0.0,0.0,0.0,0.0,0.0,0.0,0.0,1678557384.363311,0.0
142,142.0,78216.64401491213,58620.33320907751,4180.357358498259,-25043.47563308187,17969.684954844113,33390.91341387194,-19685.986004589322,-13834.008733512013,-0.062,0.864,0.47400000000000003,192.0,0.0,0.0,0.0,0.0,0.0,0.0,0.0,0.0,0.0,1678557384.363331,0.0
143,143.0,78977.94443105989,58856.814665414655,4150.830704072798,-25054.897374498534,17989.689766131614,33529.27071205029,-19492.71047028428,-13548.35343937319,-0.062,0.864,0.47400000000000003,192.0,0.0,0.0,0.0,0.0,0.0,0.0,0.0,0.0,0.0,1678557384.363351,0.0
144,144.0,79306.62683327518,58887.52596229625,4135.765628309921,-25084.78165683528,17945.634477810203,33442.43418484142,-19563.923128118888,-13657.966394182014,-0.062,0.864,0.47400000000000003,192.0,0.0,0.0,0.0,0.0,0.0,0.0,0.0,0.0,0.0,1678557384.36337,0.0
145,145.0,78575.97065877565,58645.16599716735,4160.419602444124,-25086.25687196933,17913.090337883277,33264.424891999355,-19760.305554903218,-13955.043429737501,-0.062,0.864,0.47400000000000003,192.0,0.0,0.0,0.0,0.0,0.0,0.0,0.0,0.0,0.0,1678557384.36339,0.0
146,146.0,78166.08436895424,58589.95718836274,4184.380672500214,-25054.33858088715,17943.64517255368,33329.0661369641,-19715.89263867052,-13886.64709170426,-0.06,0.86,0.47600000000000003,192.0,254.0,32.0,26.0,224.0,14.0,224.0,0.0,0.0,0.0,1678557384.36341,0.0
147,147.0,78829.73001357676,58822.571792909126,4167.125125780717,-25049.331790129163,17992.46138244407,33520.10649682361,-19505.67448206836,-13577.366003676178,-0.06,0.86,0.47600000000000003,192.0,0.0,0.0,0.0,0.0,0.0,0.0,0.0,0.0,0.0,1678557384.363429,0.0
148,148.0,79348.51400238443,58911.352921885606,4141.577081868301,-25082.814703323213,17964.052315241377,33495.608984900595,-19522.617104365483,-13608.054948813315,-0.06,0.86,0.47600000000000003,192.0,0.0,0.0,0.0,0.0,0.0,0.0,0.0,0.0,0.0,1678557384.363449,0.0
149,149.0,78727.38137571591,58683.34277669702,4150.383669183692,-25094.72818311789,17916.510154784937,33315.96801471329,-19742.37945585006,-13925.114443911845,-0.06,0.86,0.47600000000000003,192.0,0.0,0.0,0.0,0.0,0.0,0.0,0.0,0.0,0.0,1678557384.363469,0.0
150,150.0,78158.75299677289,58571.98638582068,4175.775250884921,-25062.988705991353,17950.618916823736,33320.147790926436,-19750.582546065158,-13935.820929505937,-0.06,0.86,0.47600000000000003,192.0,0.0,0.0,0.0,0.0,0.0,0.0,0.0,0.0,0.0,1678557384.363505,0.0
151,151.0,78680.97915422669,58783.903275001445,4171.528419438412,-25038.267676623786,18007.83938262932,33492.14446451002,-19533.39064519294,-13614.93928610555,-0.06,0.86,0.47600000000000003,192.0,0.0,0.0,0.0,0.0,0.0,0.0,0.0,0.0,0.0,1678557384.423429,0.0
152,152.0,79342.50138312596,58924.629858092056,4136.480884132491,-25070.700057828435,17974.8929113022,33492.09976102111,-19496.934949986335,-13563.574977347253,-0.06,0.86,0.47600000000000003,192.0,0.0,0.0,0.0,0.0,0.0,0.0,0.0,0.0,0.0,1678557384.423468,0.0
153,153.0,78869.06908381809,58721.8101289046,4141.107695234739,-25095.10816277363,17913.49266928347,33306.60263378652,-19712.919856657965,-13883.763716669526,-0.06,0.86,0.47600000000000003,192.0,0.0,0.0,0.0,0.0,0.0,0.0,0.0,0.0,0.0,1678557384.423491,0.0
154,154.0,78173.21457543547,58559.31294671452,4174.054166561862,-25064.709790314413,17937.230221895006,33273.00796187019,-19766.85461602862,-13964.721735086649,-0.06,0.86,0.47600000000000003,192.0,0.0,0.0,0.0,0.0,0.0,0.0,0.0,0.0,0.0,1678557384.423512,0.0
155,155.0,78509.07188762091,58715.28341952365,4172.400137472169,-25044.637923793547,17989.533303920427,33452.42541461294,-19569.95809912182,-13672.718545522517,-0.064,0.864,0.47200000000000003,192.0,254.0,0.0,27.0,0.0,14.0,192.0,0.0,0.0,0.0,1678557384.423532,0.0
156,156.0,79266.72896942246,58893.67269202146,4132.032886985885,-25074.34339217465,17978.782114837424,33497.12890352355,-19479.81351373357,-13544.285421882323,-0.064,0.864,0.47200000000000003,192.0,0.0,0.0,0.0,0.0,0.0,0.0,0.0,0.0,0.0,1678557384.423551,0.0
157,157.0,78975.82101533664,58721.00546610421,4123.561575837323,-25106.798125123754,17908.73174771449,33322.651186305426,-19685.56132144467,-13836.825053313381,-0.064,0.864,0.47200000000000003,192.0,0.0,0.0,0.0,0.0,0.0,0.0,0.0,0.0,0.0,1678557384.423571,0.0
158,158.0,78187.96672677598,58498.739719240635,4158.564407654334,-25087.173293491996,17917.560686774337,33277.18773808333,-19789.943968050953,-14001.490354715628,-0.064,0.864,0.47200000000000003,192.0,0.0,0.0,0.0,0.0,0.0,0.0,0.0,0.0,0.0,1678557384.423591,0.0
159,159.0,78312.55535036986,58593.26524654213,4165.716965880032,-25056.461996610404,17974.825856068834,33436.82389698314,-19617.83553574509,-13741.897194611693,-0.064,0.864,0.47200000000000003,192.0,0.0,0.0,0.0,0.0,0.0,0.0,0.0,0.0,0.0,1678557384.42361,0.0
160,160.0,79110.04324079076,58792.30753091664,4129.015401484418,-25077.092656742654,17975.965795036056,33526.70026143792,-19476.95249044329,-13535.657648522574,-0.064,0.864,0.47200000000000003,192.0,0.0,0.0,0.0,0.0,0.0,0.0,0.0,0.0,0.0,1678557384.42363,0.0
161,161.0,79030.29221657422,58682.47105866326,4113.145662921151,-25112.274302515307,17921.628704265204,33366.25943973773,-19648.03274250421,-13779.984567163536,-0.064,0.864,0.47200000000000003,192.0,0.0,0.0,0.0,0.0,0.0,0.0,0.0,0.0,0.0,1678557384.42365,0.0
162,162.0,78200.1037240152,58432.243279486094,4137.263195188427,-25101.366651221117,17918.07477689681,33270.705732191294,-19802.30448273474,-14005.424261739763,-0.064,0.864,0.47200000000000003,192.0,0.0,0.0,0.0,0.0,0.0,0.0,0.0,0.0,0.0,1678557384.423669,0.0
163,163.0,78128.93576966951,58475.0021666291,4152.596491884768,-25066.29676417074,17963.582928607815,33423.256388098765,-19668.909271825465,-13799.654102284207,-0.064,0.864,0.47200000000000003,192.0,0.0,0.0,0.0,0.0,0.0,0.0,0.0,0.0,0.0,1678557384.423689,0.0
164,164.0,78922.95913969984,58698.541962926625,4124.835625271276,-25077.76320907631,17987.119315519252,33529.941264383946,-19487.90484522639,-13542.67609628154,-0.064,0.864,0.47200000000000003,192.0,0.0,0.0,0.0,0.0,0.0,0.0,0.0,0.0,0.0,1678557384.423709,0.0
165,165.0,79069.45247285992,58658.53234035162,4106.350732606737,-25116.521133961814,17942.30406788636,33403.20687332236,-19604.98328268329,-13720.28305772341,-0.062,0.86,0.47000000000000003,192.0,254.0,16.0,26.0,224.0,14.0,176.0,0.0,0.0,0.0,1678557384.423729,0.0
166,166.0,78269.95292543805,58403.588343094394,4127.115503205718,-25117.750479906856,17908.910561670134,33275.91368864938,-19793.96728205291,-14001.53505820454,-0.062,0.86,0.47000000000000003,192.0,0.0,0.0,0.0,0.0,0.0,0.0,0.0,0.0,0.0,1678557384.482767,0.0
167,167.0,77992.8583494256,58387.47273534212,4142.113523735228,-25083.373496934593,17945.723884788025,33383.71615215733,-19714.395071792016,-13873.146638053257,-0.062,0.86,0.47000000000000003,192.0,0.0,0.0,0.0,0.0,0.0,0.0,0.0,0.0,0.0,1678557384.482809,0.0
168,168.0,78726.19673325977,58625.630572513415,4119.091226946262,-25081.607709122625,17983.900664317687,33511.63518567505,-19511.709453071293,-13576.740154831428,-0.062,0.86,0.47000000000000003,192.0,0.0,0.0,0.0,0.0,0.0,0.0,0.0,0.0,0.0,1678557384.482835,0.0
169,169.0,79090.26194694781,58663.293261920604,4096.00187492393,-25119.67272993001,17940.538280074394,33424.55278927717,-19576.64127071396,-13680.09462119277,-0.062,0.86,0.47000000000000003,192.0,0.0,0.0,0.0,0.0,0.0,0.0,0.0,0.0,0.0,1678557384.482859,0.0
170,170.0,78383.92447041566,58420.21804096914,4128.501311361946,-25111.67080541501,17913.425614050106,33251.93026684884,-19770.72146781939,-13969.616767122361,-0.062,0.86,0.47000000000000003,192.0,0.0,0.0,0.0,0.0,0.0,0.0,0.0,0.0,0.0,1678557384.482882,0.0
171,171.0,77942.58927614562,58351.53113025799,4158.564407654334,-25079.216072465908,17948.853129011768,33328.59675033054,-19732.56704003418,-13907.165993114233,-0.062,0.86,0.47000000000000003,192.0,0.0,0.0,0.0,0.0,0.0,0.0,0.0,0.0,0.0,1678557384.482922,0.0
172,172.0,78583.43614142372,58585.442135982776,4135.855035287743,-25079.461941654914,17983.520684661948,33514.004470587315,-19529.546145146625,-13598.60016090872,-0.062,0.86,0.47000000000000003,192.0,0.0,0.0,0.0,0.0,0.0,0.0,0.0,0.0,0.0,1678557384.482944,0.0
173,173.0,79137.15590681505,58692.21641924577,4103.869688972198,-25116.319968261716,17947.690838300092,33461.58962983962,-19539.090340029044,-13619.946076863538,-0.062,0.86,0.47000000000000003,192.0,0.0,0.0,0.0,0.0,0.0,0.0,0.0,0.0,0.0,1678557384.482964,0.0
174,174.0,78548.85799275136,58471.0012043716,4112.899793732142,-25132.390872525084,17906.54127675787,33287.46954053277,-19758.24919441333,-13945.454531366175,-0.062,0.86,0.47000000000000003,192.0,0.0,0.0,0.0,0.0,0.0,0.0,0.0,0.0,0.0,1678557384.482983,0.0
175,175.0,77948.08780528163,58352.11227561382,4144.527512136401,-25091.308366216228,17935.799710249867,33291.09052313453,-19772.509607375814,-13961.525435629539,-0.056,0.864,0.47600000000000003,192.0,254.0,64.0,27.0,0.0,14.0,224.0,0.0,0.0,0.0,1678557384.483003,0.0
176,176.0,78437.27808443047,58557.457751924725,4136.324421921304,-25069.694229327946,17981.46432417206,33485.77421734026,-19562.000878095732,-13644.756513208928,-0.056,0.864,0.47600000000000003,192.0,0.0,0.0,0.0,0.0,0.0,0.0,0.0,0.0,0.0,1678557384.483023,0.0
177,177.0,79138.00527310435,58724.51468998369,4099.913430203608,-25101.947796576955,17958.039695982898,33491.831540087645,-19518.079700241055,-13580.78582057784,-0.056,0.864,0.47600000000000003,192.0,0.0,0.0,0.0,0.0,0.0,0.0,0.0,0.0,0.0,1678557384.483043,0.0
178,178.0,78717.70307036676,58547.31005994202,4103.802633738832,-25122.7796224093,17913.8279454503,33315.90095947993,-19729.929534188454,-13889.41870801672,-0.056,0.864,0.47600000000000003,192.0,0.0,0.0,0.0,0.0,0.0,0.0,0.0,0.0,0.0,1678557384.483063,0.0
179,179.0,78013.48900955784,58379.69432827167,4136.905567277142,-25096.24810174085,17926.546088045372,33283.781502697646,-19797.051822787744,-13990.649758654805,-0.056,0.864,0.47600000000000003,192.0,0.0,0.0,0.0,0.0,0.0,0.0,0.0,0.0,0.0,1678557384.483083,0.0
180,180.0,78331.77785060143,58547.80179832003,4144.77338132541,-25069.805988050222,17971.9424810341,33461.25435367279,-19600.870561703512,-13702.46871739253,-0.056,0.864,0.47600000000000003,192.0,0.0,0.0,0.0,0.0,0.0,0.0,0.0,0.0,0.0,1678557384.483102,0.0
181,181.0,79132.79731664626,58762.378545090985,4116.610183311723,-25091.643642383056,17978.17861773713,33505.44375246093,-19490.8999789834,-13551.527387085842,-0.056,0.864,0.47600000000000003,192.0,0.0,0.0,0.0,0.0,0.0,0.0,0.0,0.0,0.0,1678557384.542672,0.0
182,182.0,78912.58793027258,58631.97846793872,4112.408055354125,-25119.53861946328,17924.26621011093,33316.34799436903,-19682.297966754195,-13832.801739311426,-0.056,0.864,0.47600000000000003,192.0,0.0,0.0,0.0,0.0,0.0,0.0,0.0,0.0,0.0,1678557384.542711,0.0
183,183.0,78134.00961566086,58431.59507889689,4153.982300040996,-25093.67765112849,17937.051407939365,33257.31703726257,-19788.938139550464,-14000.551581448506,-0.056,0.864,0.47600000000000003,192.0,0.0,0.0,0.0,0.0,0.0,0.0,0.0,0.0,0.0,1678557384.542734,0.0
184,184.0,78247.44471877156,58541.16333021681,4159.838457088287,-25068.73310431637,17982.51485616146,33448.17858316643,-19626.64212306048,-13753.721267428551,-0.056,0.864,0.47600000000000003,192.0,0.0,0.0,0.0,0.0,0.0,0.0,0.0,0.0,0.0,1678557384.542755,0.0
185,185.0,79077.83437703067,58777.890655742965,4122.980430481485,-25087.24034872536,17996.238827257017,33526.230874804365,-19480.685231767326,-13546.20767190548,-0.058,0.866,0.47600000000000003,192.0,254.0,48.0,27.0,16.0,14.0,224.0,0.0,0.0,0.0,1678557384.542775,0.0
186,186.0,79073.07345546168,58707.66147466439,4109.770549508399,-25115.425898483503,17936.51496607244,33375.51306194223,-19635.761634798248,-13773.100229871301,-0.058,0.866,0.47600000000000003,192.0,0.0,0.0,0.0,0.0,0.0,0.0,0.0,0.0,0.0,1678557384.542794,0.0
187,187.0,78273.43979757307,58478.28787306403,4141.420619657114,-25101.03137505429,17926.07670141181,33297.93015693786,-19792.514418663315,-14005.737186162138,-0.058,0.866,0.47600000000000003,192.0,0.0,0.0,0.0,0.0,0.0,0.0,0.0,0.0,0.0,1678557384.542814,0.0
188,188.0,78174.57803184725,58527.618173076895,4152.06005001784,-25069.448360138937,17972.32246068984,33413.242806582784,-19674.720725383846,-13822.385826395253,-0.058,0.866,0.47600000000000003,192.0,0.0,0.0,0.0,0.0,0.0,0.0,0.0,0.0,0.0,1678557384.542834,0.0
189,189.0,78978.1903002489,58775.00728070823,4125.707343305033,-25074.388095663562,18001.759708137477,33528.39899401653,-19488.977728960246,-13554.701334798496,-0.058,0.866,0.47600000000000003,192.0,0.0,0.0,0.0,0.0,0.0,0.0,0.0,0.0,0.0,1678557384.542853,0.0
190,190.0,79187.26851788384,58765.55249280364,4108.608258796723,-25106.485200701383,17951.624745324225,33401.39638202148,-19592.846285444055,-13708.190763973089,-0.058,0.866,0.47600000000000003,192.0,0.0,0.0,0.0,0.0,0.0,0.0,0.0,0.0,0.0,1678557384.542873,0.0
191,191.0,78420.96131097809,58530.07686496698,4141.755895823943,-25098.7738488643,17924.15445138865,33238.45216494229,-19776.041182999754,-13985.553560918996,-0.058,0.866,0.47600000000000003,192.0,0.0,0.0,0.0,0.0,0.0,0.0,0.0,0.0,0.0,1678557384.542892,0.0
192,192.0,78127.5946650022,58521.51614684059,4168.555637425857,-25058.25013616683,17966.93569027611,33343.32654992659,-19698.972368117855,-13867.513998450519,-0.058,0.866,0.47600000000000003,192.0,0.0,0.0,0.0,0.0,0.0,0.0,0.0,0.0,0.0,1678557384.542929,0.0
193,193.0,78857.33441797906,58766.33480385957,4142.940538280075,-25051.90224074152,17993.60132141129,33533.80811617471,-19498.030185464642,-13565.318413414767,-0.058,0.866,0.47600000000000003,192.0,0.0,0.0,0.0,0.0,0.0,0.0,0.0,0.0,0.0,1678557384.542949,0.0
194,194.0,79270.59582121322,58821.14128126398,4116.721942034,-25090.570758649203,17952.965849991542,33443.37295810854,-19554.177767536374,-13644.868271931206,-0.058,0.866,0.47600000000000003,192.0,0.0,0.0,0.0,0.0,0.0,0.0,0.0,0.0,0.0,1678557384.542969,0.0
195,195.0,78586.6994961142,58586.85029588346,4132.636384086178,-25100.472581442904,17917.15835537414,33263.5531739656,-19764.91001426101,-13956.898624527292,-0.06,0.87,0.47200000000000003,192.0,254.0,32.0,27.0,48.0,14.0,192.0,0.0,0.0,0.0,1678557384.542989,0.0
196,196.0,78107.85807464816,58515.05649269301,4157.849151831764,-25071.236499695362,17955.066913970342,33338.386814401965,-19742.42415933897,-13922.834565977404,-0.06,0.87,0.47200000000000003,192.0,0.0,0.0,0.0,0.0,0.0,0.0,0.0,0.0,0.0,1678557384.602972,0.0
197,197.0,78716.29491046607,58746.39704780544,4143.722849336011,-25060.261793167807,17998.876333102744,33546.34744481414,-19526.39454917843,-13607.540858690842,-0.06,0.87,0.47200000000000003,192.0,0.0,0.0,0.0,0.0,0.0,0.0,0.0,0.0,0.0,1678557384.603011,0.0
198,198.0,79302.2235396175,58853.528958979725,4110.709322775522,-25091.10720051613,17971.45074265608,33503.32033673768,-19521.544220631626,-13600.969445820981,-0.06,0.87,0.47200000000000003,192.0,0.0,0.0,0.0,0.0,0.0,0.0,0.0,0.0,0.0,1678557384.603034,0.0
199,199.0,78748.81669864854,58646.663564045855,4129.775360795898,-25095.8234185962,17926.00964617844,33290.82230220107,-19735.89744995802,-13913.51388853954,-0.06,0.87,0.47200000000000003,192.0,0.0,0.0,0.0,0.0,0.0,0.0,0.0,0.0,0.0,1678557384.603054,0.0
200,200.0,78129.58397025871,58519.795062517536,4163.772364112421,-25061.15586294602,17950.104826701263,33291.49285453473,-19759.92557524748,-13951.243633180098,-0.06,0.87,0.47200000000000003,192.0,0.0,0.0,0.0,0.0,0.0,0.0,0.0,0.0,0.0,1678557384.603074,0.0
201,201.0,78576.32828668694,58711.260105521695,4158.050317531863,-25043.989723204344,18007.481754718036,33486.95885979639,-19553.06018031361,-13649.56213826682,-0.06,0.87,0.47200000000000003,192.0,0.0,0.0,0.0,0.0,0.0,0.0,0.0,0.0,0.0,1678557384.603094,0.0
202,202.0,79293.84163544675,58879.92636918144,4125.48382586048,-25071.839996795654,17989.42154519815,33507.45540946191,-19488.776563260148,-13559.886939512127,-0.06,0.87,0.47200000000000003,192.0,0.0,0.0,0.0,0.0,0.0,0.0,0.0,0.0,0.0,1678557384.603114,0.0
203,203.0,78906.88823543648,58704.062843807085,4119.717075791011,-25095.6222528961,17917.895962941166,33303.562796540595,-19705.163801331975,-13864.585919926873,-0.06,0.87,0.47200000000000003,192.0,0.0,0.0,0.0,0.0,0.0,0.0,0.0,0.0,0.0,1678557384.603133,0.0
204,204.0,78172.94635450201,58521.449091607225,4143.29816619136,-25075.237461952864,17929.11653865773,33257.27233377365,-19787.753497094334,-13984.033642296034,-0.06,0.87,0.47200000000000003,192.0,0.0,0.0,0.0,0.0,0.0,0.0,0.0,0.0,0.0,1678557384.603153,0.0
205,205.0,78436.94280826364,58670.155247468385,4147.7908668268765,-25048.638886051045,17987.119315519252,33451.30782739018,-19599.618864014014,-13702.647531348173,-0.064,0.872,0.47400000000000003,192.0,254.0,0.0,27.0,64.0,14.0,208.0,0.0,0.0,0.0,1678557384.603173,0.0
206,206.0,79236.24118998542,58879.92636918144,4119.0241717128965,-25071.951755517934,17995.612978412268,33548.76143321532,-19482.339260857018,-13537.691657268007,-0.064,0.872,0.47400000000000003,192.0,0.0,0.0,0.0,0.0,0.0,0.0,0.0,0.0,0.0,1678557384.603192,0.0
207,207.0,79054.09682441913,58754.30956534261,4113.7491600214435,-25102.595997166158,17942.438178353095,33391.94159411688,-19665.780027601722,-13809.891201244736,-0.064,0.872,0.47400000000000003,192.0,0.0,0.0,0.0,0.0,0.0,0.0,0.0,0.0,0.0,1678557384.603212,0.0
208,208.0,78262.77801546789,58541.386847661364,4150.473076161513,-25078.7690375768,17936.49261432798,33296.18672087035,-19789.854561073134,-14001.669168671271,-0.064,0.872,0.47400000000000003,192.0,0.0,0.0,0.0,0.0,0.0,0.0,0.0,0.0,0.0,1678557384.603232,0.0
209,209.0,78329.989711045,58641.72382852124,4165.448744946569,-25040.81577549169,17978.446838670592,33404.19035007839,-19632.87825976351,-13757.856340152783,-0.064,0.872,0.47400000000000003,192.0,0.0,0.0,0.0,0.0,0.0,0.0,0.0,0.0,0.0,1678557384.603252,0.0
210,210.0,79151.86335466664,58875.07604063464,4133.1728259531055,-25059.792406534245,17990.00269055399,33509.1094385516,-19477.064249165567,-13531.164947887059,-0.064,0.872,0.47400000000000003,192.0,0.0,0.0,0.0,0.0,0.0,0.0,0.0,0.0,0.0,1678557384.603271,0.0
211,211.0,79186.32974461673,58811.46297591484,4115.380837366681,-25091.665994127514,17932.5810590483,33386.59952719206,-19624.921038737422,-13745.987563847015,-0.064,0.872,0.47400000000000003,192.0,0.0,0.0,0.0,0.0,0.0,0.0,0.0,0.0,0.0,1678557384.664641,0.0
212,212.0,78382.8515866818,58574.40037422185,4143.655794102645,-25078.456113154425,17922.008683920943,33255.595952939504,-19786.479447660382,-13992.236732511132,-0.064,0.872,0.47400000000000003,192.0,0.0,0.0,0.0,0.0,0.0,0.0,0.0,0.0,0.0,1678557384.664681,0.0
213,213.0,78233.47487848699,58600.59661872347,4153.937596552086,-25047.18602266145,17971.718963589545,33385.41488473593,-19676.03947830671,-13817.535497848452,-0.064,0.872,0.47400000000000003,192.0,0.0,0.0,0.0,0.0,0.0,0.0,0.0,0.0,0.0,1678557384.664703,0.0
214,214.0,79021.93266414794,58844.38709549751,4123.427465370592,-25056.417293121493,17994.785963867424,33531.10355509562,-19489.067135938065,-13544.754808515885,-0.064,0.872,0.47400000000000003,192.0,0.0,0.0,0.0,0.0,0.0,0.0,0.0,0.0,0.0,1678557384.664741,0.0
215,215.0,79265.63373394415,58840.252022773275,4098.348808091737,-25098.68444188648,17938.526623073416,33424.798658466185,-19592.063974388122,-13697.685444079096,-0.064,0.868,0.47600000000000003,192.0,254.0,0.0,27.0,32.0,14.0,224.0,0.0,0.0,0.0,1678557384.664762,0.0
216,216.0,78506.00969863054,58596.193325065775,4122.421636870103,-25096.002232551844,17922.031035665397,33265.65423794439,-19785.741840093357,-13988.43693595373,-0.064,0.868,0.47600000000000003,192.0,0.0,0.0,0.0,0.0,0.0,0.0,0.0,0.0,0.0,1678557384.664782,0.0
217,217.0,78172.454616124,58569.773563119605,4146.092134248273,-25059.993572234343,17960.990126251,33344.75706157173,-19717.099632871108,-13883.786068413981,-0.064,0.868,0.47600000000000003,192.0,0.0,0.0,0.0,0.0,0.0,0.0,0.0,0.0,0.0,1678557384.664802,0.0
218,218.0,78879.26147928971,58807.86434505753,4129.551843351346,-25059.613592578604,17987.923978319643,33524.84506664814,-19506.9038280134,-13579.489419399431,-0.064,0.868,0.47600000000000003,192.0,0.0,0.0,0.0,0.0,0.0,0.0,0.0,0.0,0.0,1678557384.664821,0.0
219,219.0,79326.96692072951,58875.970110412854,4109.614087297212,-25085.474560913393,17957.905585516168,33449.6985017894,-19543.180709264365,-13636.151091593634,-0.064,0.868,0.47600000000000003,192.0,0.0,0.0,0.0,0.0,0.0,0.0,0.0,0.0,0.0,1678557384.664841,0.0
220,220.0,78659.83440397197,58641.70147677678,4125.305011904838,-25091.53188366078,17920.68993099808,33263.59787745451,-19752.594203066135,-13946.57211858894,-0.064,0.868,0.47600000000000003,192.0,0.0,0.0,0.0,0.0,0.0,0.0,0.0,0.0,0.0,1678557384.664861,0.0
221,221.0,78148.38178734563,58551.869815810904,4151.367145939726,-25062.698133313435,17948.987239478498,33307.362593098,-19740.680723271456,-13925.650885778772,-0.064,0.868,0.47600000000000003,192.0,0.0,0.0,0.0,0.0,0.0,0.0,0.0,0.0,0.0,1678557384.66488,0.0
222,222.0,78721.32405296851,58764.881940469975,4133.217529442016,-25056.931383243966,17983.274815472938,33497.218310501376,-19535.134081260454,-13616.950943106527,-0.064,0.868,0.47600000000000003,192.0,0.0,0.0,0.0,0.0,0.0,0.0,0.0,0.0,0.0,1678557384.6649,0.0
223,223.0,79337.80751679034,58896.69017752292,4107.781244251877,-25080.981860277876,17964.298184430383,33497.1065517791,-19516.649188595915,-13594.912123073593,-0.064,0.868,0.47600000000000003,192.0,0.0,0.0,0.0,0.0,0.0,0.0,0.0,0.0,0.0,1678557384.66492,0.0
224,224.0,78811.55804533459,58694.51864892467,4117.727770534489,-25098.72914537539,17917.292465840874,33311.1623896554,-19729.996589421822,-13911.815155960938,-0.066,0.866,0.47400000000000003,192.0,253.0,240.0,27.0,16.0,14.0,208.0,0.0,0.0,0.0,1678557384.66494,0.0
225,225.0,78161.32344738525,58542.52678662858,4146.494465648469,-25073.20345320743,17944.852166754266,33304.903901207916,-19768.262775929306,-13970.801409578493,-0.066,0.866,0.47400000000000003,192.0,0.0,0.0,0.0,0.0,0.0,0.0,0.0,0.0,0.0,1678557384.66496,0.0
226,226.0,78574.78601631951,58720.9607626153,4139.252500444949,-25052.885717497556,17986.158190507675,33455.50995534777,-19566.359468264516,-13666.393001841665,-0.066,0.866,0.47400000000000003,192.0,0.0,0.0,0.0,0.0,0.0,0.0,0.0,0.0,0.0,1678557384.724069,0.0
227,227.0,79312.66180427812,58897.18191590094,4104.272020372394,-25081.697116100448,17967.829760054323,33487.987040041335,-19493.71629878477,-13564.670212825564,-0.066,0.866,0.47400000000000003,192.0,0.0,0.0,0.0,0.0,0.0,0.0,0.0,0.0,0.0,1678557384.72411,0.0
228,228.0,78965.78508207621,58733.29892555463,4107.222450640494,-25101.21018900993,17913.336207072283,33305.373287841474,-19701.81103966368,-13867.93868159517,-0.066,0.866,0.47400000000000003,192.0,0.0,0.0,0.0,0.0,0.0,0.0,0.0,0.0,0.0,1678557384.724133,0.0
229,229.0,78213.26890149938,58544.180815718275,4137.889044033175,-25076.91384278701,17924.40032057766,33252.332598249035,-19791.91092156302,-14002.719700660671,-0.066,0.866,0.47400000000000003,192.0,0.0,0.0,0.0,0.0,0.0,0.0,0.0,0.0,0.0,1678557384.724153,0.0
230,230.0,78437.76982280849,58684.639177875426,4145.443933659069,-25046.224897649874,17983.073649772843,33440.98132145182,-19605.095041405566,-13724.708703125561,-0.066,0.866,0.47400000000000003,192.0,0.0,0.0,0.0,0.0,0.0,0.0,0.0,0.0,0.0,1678557384.724173,0.0
231,231.0,79243.70667263349,58899.77471825776,4112.989200709963,-25069.135435716562,17991.43320219913,33520.30766252371,-19475.499627053694,-13548.264032395367,-0.066,0.866,0.47400000000000003,192.0,0.0,0.0,0.0,0.0,0.0,0.0,0.0,0.0,0.0,1678557384.724193,0.0
232,232.0,79099.60497613013,58782.718632545315,4101.9474389490415,-25102.037203554777,17933.20690789305,33355.1729744879,-19658.22513797583,-13810.449994856119,-0.066,0.866,0.47400000000000003,192.0,0.0,0.0,0.0,0.0,0.0,0.0,0.0,0.0,0.0,1678557384.724213,0.0
233,233.0,78304.79929504386,58567.06900204051,4138.9842795114855,-25078.791389321257,17942.773454519924,33254.85834537248,-19789.832209328677,-14004.641950683827,-0.066,0.866,0.47400000000000003,192.0,0.0,0.0,0.0,0.0,0.0,0.0,0.0,0.0,0.0,1678557384.724232,0.0
234,234.0,78326.6369493767,58650.66452630336,4148.997861027463,-25046.649580794525,18000.485658703525,33399.87646339851,-19643.025951746222,-13780.453953797098,-0.064,0.868,0.47800000000000004,192.0,254.0,0.0,27.0,32.0,14.0,240.0,0.0,0.0,0.0,1678557384.724252,0.0
235,235.0,79151.88570641109,58893.89620946601,4128.031924728385,-25055.165595431998,18010.65570243069,33528.600159716625,-19471.38690607392,-13539.703314268985,-0.064,0.868,0.47800000000000004,192.0,0.0,0.0,0.0,0.0,0.0,0.0,0.0,0.0,0.0,1678557384.724289,0.0
236,236.0,79235.54828590731,58845.19175829789,4120.275869402393,-25084.133456246076,17946.752065032968,33386.979506847805,-19603.999805927255,-13735.258726508466,-0.064,0.868,0.47800000000000004,192.0,0.0,0.0,0.0,0.0,0.0,0.0,0.0,0.0,0.0,1678557384.724308,0.0
237,237.0,78434.64057858475,58604.03878736959,4148.751991838454,-25075.706848586422,17930.59175379178,33259.19458379681,-19775.72825857738,-13995.120107545867,-0.064,0.868,0.47800000000000004,192.0,0.0,0.0,0.0,0.0,0.0,0.0,0.0,0.0,0.0,1678557384.724328,0.0
238,238.0,78246.08126235977,58619.79676721058,4158.050317531863,-25047.38718836155,17968.83558855481,33375.088378797576,-19674.161931772465,-13835.193375968145,-0.064,0.868,0.47800000000000004,192.0,0.0,0.0,0.0,0.0,0.0,0.0,0.0,0.0,0.0,1678557384.724348,0.0
239,239.0,79014.82480941115,58857.82049391515,4123.963907237519,-25055.43381636546,17984.995899796,33517.08901132215,-19488.396583604408,-13558.143503444613,-0.064,0.868,0.47800000000000004,192.0,0.0,0.0,0.0,0.0,0.0,0.0,0.0,0.0,0.0,1678557384.724368,0.0
240,240.0,79305.73276349697,58869.28693882072,4096.627723768678,-25090.59311039366,17934.324495115816,33433.76170799276,-19576.753029436237,-13683.112106694236,-0.064,0.868,0.47800000000000004,192.0,0.0,0.0,0.0,0.0,0.0,0.0,0.0,0.0,0.0,1678557384.724388,0.0
241,241.0,78563.00664699158,58628.58100278152,4118.331267634781,-25090.660165627025,17909.894038426166,33273.723217692765,-19775.72825857738,-13981.440839939218,-0.064,0.868,0.47800000000000004,192.0,0.0,0.0,0.0,0.0,0.0,0.0,0.0,0.0,0.0,1678557384.783685,0.0
242,242.0,78179.04838073831,58582.04467082556,4141.48767489048,-25056.350237888128,17946.908527244155,33354.34595994306,-19722.195830606917,-13899.231123832598,-0.064,0.868,0.47800000000000004,192.0,0.0,0.0,0.0,0.0,0.0,0.0,0.0,0.0,0.0,1678557384.783724,0.0
243,243.0,78861.78241512566,58818.727292862815,4124.76857003791,-25047.72246452838,17987.365184708262,33505.93549083894,-19509.921313514868,-13584.049175268314,-0.064,0.868,0.47800000000000004,192.0,0.0,0.0,0.0,0.0,0.0,0.0,0.0,0.0,0.0,1678557384.783747,0.0
244,244.0,79348.46929889552,58896.578418800644,4095.7783574793766,-25082.837055067666,17952.228242424517,33439.99784469579,-19539.313857473597,-13627.433911256065,-0.06,0.864,0.47400000000000003,192.0,254.0,32.0,27.0,0.0,14.0,208.0,0.0,0.0,0.0,1678557384.783768,0.0
245,245.0,78707.7788958286,58665.46138113277,4110.664619286611,-25094.102334273142,17921.53929728738,33266.01186585568,-19754.896432745034,-13943.487577854106,-0.06,0.864,0.47400000000000003,192.0,0.0,0.0,0.0,0.0,0.0,0.0,0.0,0.0,0.0,1678557384.783787,0.0
246,246.0,78164.92207824255,58567.471333440706,4142.649965602156,-25057.534880344258,17950.820082523835,33288.58712775554,-19748.794406508732,-13936.290316139499,-0.06,0.864,0.47400000000000003,192.0,0.0,0.0,0.0,0.0,0.0,0.0,0.0,0.0,0.0,1678557384.783807,0.0
247,247.0,78711.31047145254,58781.91396974492,4135.273889931905,-25039.631133035557,17991.61201615477,33479.4039701705,-19532.38481669245,-13619.566097207797,-0.06,0.864,0.47400000000000003,192.0,0.0,0.0,0.0,0.0,0.0,0.0,0.0,0.0,0.0,1678557384.783827,0.0
248,248.0,79358.21465947804,58920.94182025693,4102.372122093692,-25072.175272962486,17976.54694039189,33493.32910696615,-19502.34407214452,-13584.853838068706,-0.06,0.864,0.47400000000000003,192.0,0.0,0.0,0.0,0.0,0.0,0.0,0.0,0.0,0.0,1678557384.783847,0.0
249,249.0,78867.54916519513,58724.91702138389,4113.302125132337,-25084.669898113003,17924.132099644197,33306.580282042065,-19719.84889743911,-13897.84531567637,-0.06,0.864,0.47400000000000003,192.0,0.0,0.0,0.0,0.0,0.0,0.0,0.0,0.0,0.0,1678557384.783867,0.0
250,250.0,78193.64406986763,58573.30513874354,4150.316613950326,-25052.662200053,17936.671428283626,33310.58124429956,-19761.221976425884,-13963.559444374972,-0.06,0.864,0.47400000000000003,192.0,0.0,0.0,0.0,0.0,0.0,0.0,0.0,0.0,0.0,1678557384.783887,0.0
251,251.0,78567.81227204947,58743.692486726344,4141.0406400013735,-25039.04998767972,17982.51485616146,33483.27082196126,-19564.19134905235,-13668.091734420268,-0.06,0.864,0.47400000000000003,192.0,0.0,0.0,0.0,0.0,0.0,0.0,0.0,0.0,0.0,1678557384.783906,0.0
252,252.0,79321.98248171598,58924.629858092056,4101.567459293301,-25069.470711883394,17965.527530375424,33506.226063516864,-19486.429630092338,-13556.06479121027,-0.06,0.864,0.47400000000000003,192.0,0.0,0.0,0.0,0.0,0.0,0.0,0.0,0.0,0.0,1678557384.783926,0.0
253,253.0,79014.06485009968,58769.06171668312,4096.426558068581,-25094.906997073533,17916.532506529395,33319.25372114822,-19690.009318591277,-13848.827940085881,-0.06,0.864,0.47400000000000003,192.0,0.0,0.0,0.0,0.0,0.0,0.0,0.0,0.0,0.0,1678557384.783946,0.0
254,254.0,78250.57396299529,58569.17006601931,4131.138817207672,-25069.96245026141,17929.138890402188,33260.62509544195,-19787.328813949684,-13997.020005824568,-0.058,0.862,0.47600000000000003,192.0,254.0,48.0,26.0,240.0,14.0,224.0,0.0,0.0,0.0,1678557384.783966,0.0
255,255.0,78430.34904364933,58691.29999772311,4137.397305655159,-25041.79925224772,17973.395344423694,33436.82389698314,-19612.962855453832,-13731.950668329082,-0.058,0.862,0.47600000000000003,192.0,0.0,0.0,0.0,0.0,0.0,0.0,0.0,0.0,0.0,1678557384.783986,0.0
256,0.0,79246.03125405684,58913.99042773133,4107.535375062868,-25058.563060589204,17976.345774691796,33519.2124270454,-19475.67844100934,-13538.429264835033,-0.058,0.862,0.47600000000000003,192.0,0.0,0.0,0.0,0.0,0.0,0.0,0.0,0.0,0.0,1678557384.843239,0.0
257,1.0,79154.59026749019,58816.87209807302,4101.589811037757,-25086.614499880612,17932.7822247484,33361.31970421311,-19644.948201769377,-13782.398555564709,-0.058,0.862,0.47600000000000003,192.0,0.0,0.0,0.0,0.0,0.0,0.0,0.0,0.0,0.0,1678557384.843279,0.0
258,2.0,78343.91484784066,58584.793935393565,4124.880328760187,-25077.852616054133,17927.954247946054,33271.10806359149,-19793.67670937499,-14002.786755894036,-0.058,0.862,0.47600000000000003,192.0,0.0,0.0,0.0,0.0,0.0,0.0,0.0,0.0,0.0,1678557384.843302,0.0
259,3.0,78312.91297828114,58644.3389826225,4131.161168952128,-25051.85753725261,17969.349678677285,33412.52755076022,-19656.615812375047,-13795.787250493438,-0.058,0.862,0.47600000000000003,192.0,0.0,0.0,0.0,0.0,0.0,0.0,0.0,0.0,0.0,1678557384.843323,0.0
260,4.0,79133.44551723546,58889.49291580831,4106.149566906639,-25057.758397788813,17996.1494202792,33546.05687213622,-19473.890301452913,-13540.887956725117,-0.058,0.862,0.47600000000000003,192.0,0.0,0.0,0.0,0.0,0.0,0.0,0.0,0.0,0.0,1678557384.843343,0.0
261,5.0,79258.6599896741,58853.35014502408,4091.6879882440558,-25088.000308036844,17946.12621618822,33413.98041414981,-19597.83072445759,-13722.987618802503,-0.058,0.862,0.47600000000000003,192.0,0.0,0.0,0.0,0.0,0.0,0.0,0.0,0.0,0.0,1678557384.843362,0.0
262,6.0,78466.00007605554,58610.833717684,4120.946421736053,-25075.572738119692,17929.92120145812,33256.57942969554,-19776.19764521094,-13987.542866175518,-0.058,0.862,0.47600000000000003,192.0,0.0,0.0,0.0,0.0,0.0,0.0,0.0,0.0,0.0,1678557384.843382,0.0
263,7.0,78237.27467504439,58615.05819738605,4137.48671263298,-25038.71471151289,17961.772437306936,33365.52183217071,-19684.622548177547,-13844.335239450365,-0.058,0.862,0.47600000000000003,192.0,0.0,0.0,0.0,0.0,0.0,0.0,0.0,0.0,0.0,1678557384.843402,0.0
264,8.0,78997.16693129146,58858.893377649,4110.1058256752285,-25045.19671740493,17989.75682136498,33528.197828316435,-19488.687156282325,-13558.188206933524,-0.06,0.866,0.47200000000000003,192.0,254.0,32.0,27.0,16.0,14.0,192.0,0.0,0.0,0.0,1678557384.843422,0.0
265,9.0,79335.3264731558,58887.48125880734,4085.5859620077567,-25080.557177133225,17953.45758836956,33427.27970210072,-19563.565500207606,-13668.114086164724,-0.06,0.866,0.47200000000000003,192.0,0.0,0.0,0.0,0.0,0.0,0.0,0.0,0.0,0.0,1678557384.843442,0.0
266,10.0,78608.8500748694,58647.37881986843,4108.34003786326,-25082.412371923016,17926.903715956654,33264.02256059916,-19762.317211904196,-13967.515703143563,-0.06,0.866,0.47200000000000003,192.0,0.0,0.0,0.0,0.0,0.0,0.0,0.0,0.0,0.0,1678557384.843462,0.0
267,11.0,78190.78304657734,58590.13600231839,4134.603337598245,-25051.634019808058,17961.21364369555,33353.38483493147,-19715.602065992603,-13899.70051046616,-0.06,0.866,0.47200000000000003,192.0,0.0,0.0,0.0,0.0,0.0,0.0,0.0,0.0,0.0,1678557384.843482,0.0
268,12.0,78843.36457769449,58819.151976007466,4117.817177512309,-25050.359970374106,17996.864676101766,33534.00928187481,-19500.131249443442,-13584.451506668509,-0.06,0.866,0.47200000000000003,192.0,0.0,0.0,0.0,0.0,0.0,0.0,0.0,0.0,0.0,1678557384.843502,0.0
269,13.0,79363.84729908076,58908.02251196176,4086.90471493062,-25086.05570626923,17974.334117690818,33483.2037667279,-19517.073871740566,-13610.357178492211,-0.06,0.866,0.47200000000000003,192.0,0.0,0.0,0.0,0.0,0.0,0.0,0.0,0.0,0.0,1678557384.843521,0.0
270,14.0,78750.9848178607,58681.86756156297,4103.199136638539,-25088.8720260706,17922.858050210245,33298.39954357142,-19733.036426667742,-13927.617839290839,-0.06,0.866,0.47200000000000003,192.0,0.0,0.0,0.0,0.0,0.0,0.0,0.0,0.0,0.0,1678557384.843541,0.0
271,15.0,78172.61107833518,58568.58892066347,4138.671355089111,-25049.37649361807,17943.22048940903,33309.30719486561,-19738.691418014936,-13936.737351028605,-0.06,0.866,0.47200000000000003,192.0,0.0,0.0,0.0,0.0,0.0,0.0,0.0,0.0,0.0,1678557384.902912,0.0
272,16.0,78684.75659903963,58777.197751664855,4131.027058485396,-25027.6058945186,17993.60132141129,33492.43503718794,-19526.662770111892,-13621.98008560897,-0.06,0.866,0.47200000000000003,192.0,0.0,0.0,0.0,0.0,0.0,0.0,0.0,0.0,0.0,1678557384.902953,0.0
273,17.0,79361.34390370178,58924.696913325424,4095.197212123539,-25062.675781568978,17976.904568303176,33513.713897909394,-19486.34022311452,-13569.073506483259,-0.06,0.866,0.47200000000000003,192.0,0.0,0.0,0.0,0.0,0.0,0.0,0.0,0.0,0.0,1678557384.902975,0.0
274,18.0,78911.51504653873,58737.121073856484,4104.182613394572,-25078.098485243143,17926.16610838963,33315.00688970171,-19701.47576349685,-13885.820077159415,-0.064,0.868,0.47200000000000003,192.0,254.0,0.0,27.0,32.0,14.0,192.0,0.0,0.0,0.0,1678557384.902996,0.0
275,19.0,78213.73828813294,58576.344975989465,4136.704401577044,-25051.790482019245,17954.55282384787,33287.40248529941,-19765.42410438348,-13971.896645056802,-0.064,0.868,0.47200000000000003,192.0,0.0,0.0,0.0,0.0,0.0,0.0,0.0,0.0,0.0,1678557384.903015,0.0
276,20.0,78543.31476012645,58741.34555355854,4136.726753321499,-25028.946999185922,17992.03669929942,33444.647007542495,-19573.288509045662,-13681.748650282461,-0.064,0.868,0.47200000000000003,192.0,0.0,0.0,0.0,0.0,0.0,0.0,0.0,0.0,0.0,1678557384.903035,0.0
277,21.0,79319.38967935917,58935.69397159744,4107.311857618315,-25053.220993664385,17974.13295199072,33519.63711019005,-19474.42674331984,-13547.034686450326,-0.064,0.868,0.47200000000000003,192.0,0.0,0.0,0.0,0.0,0.0,0.0,0.0,0.0,0.0,1678557384.903055,0.0
278,22.0,79057.42723434296,58786.406670380435,4103.914392461109,-25082.591185878657,17920.68993099808,33349.629741862984,-19671.9938125603,-13833.919326534193,-0.064,0.868,0.47200000000000003,192.0,0.0,0.0,0.0,0.0,0.0,0.0,0.0,0.0,0.0,1678557384.903098,0.0
279,23.0,78273.66331501762,58571.248778253655,4130.110636962729,-25070.789464806257,17911.9280471716,33265.85540364449,-19787.26175871632,-14002.384424493841,-0.064,0.868,0.47200000000000003,192.0,0.0,0.0,0.0,0.0,0.0,0.0,0.0,0.0,0.0,1678557384.903118,0.0
280,24.0,78407.88554047175,58686.2037999873,4145.667451103622,-25036.591295789636,17972.12129498974,33431.68299575842,-19612.56052405364,-13742.880671367726,-0.064,0.868,0.47200000000000003,192.0,0.0,0.0,0.0,0.0,0.0,0.0,0.0,0.0,0.0,1678557384.903138,0.0
281,25.0,79230.76501259387,58915.532698098745,4122.1981194255495,-25049.86823199609,17992.66254814417,33543.19584884594,-19457.439417533806,-13527.745130985395,-0.064,0.868,0.47200000000000003,192.0,0.0,0.0,0.0,0.0,0.0,0.0,0.0,0.0,0.0,1678557384.903157,0.0
282,26.0,79179.17718639103,58821.096577775075,4116.140796678162,-25085.38515393557,17939.55480331836,33389.415846993434,-19620.674207290915,-13767.467590268565,-0.064,0.868,0.47200000000000003,192.0,0.0,0.0,0.0,0.0,0.0,0.0,0.0,0.0,0.0,1678557384.903177,0.0
283,27.0,78371.00516212049,58591.96884536372,4153.378802940703,-25070.14126421705,17921.986332176486,33296.45494180381,-19773.96247076541,-13999.210476781187,-0.064,0.868,0.47200000000000003,192.0,0.0,0.0,0.0,0.0,0.0,0.0,0.0,0.0,0.0,1678557384.903197,0.0
284,28.0,78300.19483568607,58646.954136723776,4176.490506707491,-25025.86245845109,17981.218454983053,33418.85309444107,-19638.063864477142,-13789.215837623578,-0.054,0.872,0.47000000000000003,192.0,254.0,80.0,27.0,64.0,14.0,176.0,0.0,0.0,0.0,1678557384.903217,0.0
285,29.0,79110.02088904631,58889.22469487485,4155.904550064153,-25027.04710090722,18016.869487389267,33531.72940394037,-19449.1916238298,-13519.072654136737,-0.054,0.872,0.47000000000000003,192.0,0.0,0.0,0.0,0.0,0.0,0.0,0.0,0.0,0.0,1678557384.903237,0.0
286,30.0,79286.93494641005,58869.42104928745,4146.24859645946,-25060.820586779188,17962.822969296332,33409.91239665895,-19563.67725892988,-13692.656301576651,-0.054,0.872,0.47000000000000003,192.0,0.0,0.0,0.0,0.0,0.0,0.0,0.0,0.0,0.0,1678557384.963215,0.0
287,31.0,78506.34497479736,58629.94445919329,4179.575047442323,-25054.048008209233,17935.01739919393,33261.47446173125,-19740.926592460466,-13970.041450267012,-0.054,0.872,0.47000000000000003,192.0,0.0,0.0,0.0,0.0,0.0,0.0,0.0,0.0,0.0,1678557384.963255,0.0
288,32.0,78224.24360802694,58612.51009851815,4193.857812149264,-25025.974217173367,17975.31759444685,33371.40034096246,-19664.37186770104,-13845.095198761845,-0.054,0.872,0.47000000000000003,192.0,0.0,0.0,0.0,0.0,0.0,0.0,0.0,0.0,0.0,1678557384.963278,0.0
289,33.0,78961.22532620732,58850.33265952262,4169.002672314963,-25027.136507885043,18004.397213983204,33532.13173534057,-19465.061362393066,-13549.649840551596,-0.054,0.872,0.47000000000000003,192.0,0.0,0.0,0.0,0.0,0.0,0.0,0.0,0.0,0.0,1678557384.963298,0.0
290,34.0,79342.14375521467,58894.32089261066,4146.58387262629,-25064.598031592137,17956.02803898192,33444.82582149814,-19530.887249813946,-13644.778864953383,-0.054,0.872,0.47000000000000003,192.0,0.0,0.0,0.0,0.0,0.0,0.0,0.0,0.0,0.0,1678557384.963318,0.0
291,35.0,78633.23582807014,58655.24663391669,4166.20870425805,-25071.57177586219,17913.135041372185,33259.932191363834,-19745.620458796082,-13956.272775682542,-0.054,0.872,0.47000000000000003,192.0,0.0,0.0,0.0,0.0,0.0,0.0,0.0,0.0,0.0,1678557384.963338,0.0
292,36.0,78177.03672373733,58583.36342374843,4190.147422569683,-25043.073301681674,17946.863823755244,33326.24981716273,-19719.647731739013,-13908.797670459471,-0.054,0.872,0.47000000000000003,192.0,0.0,0.0,0.0,0.0,0.0,0.0,0.0,0.0,0.0,1678557384.963357,0.0
293,37.0,78803.42201035285,58806.411481667936,4167.616864158734,-25041.37456910307,17983.65479512868,33535.663310964504,-19515.1069182285,-13596.49909692992,-0.06,0.866,0.47400000000000003,192.0,254.0,32.0,27.0,16.0,14.0,208.0,0.0,0.0,0.0,1678557384.963377,0.0
294,38.0,79368.76468286094,58913.61044807559,4140.303032434348,-25071.8176450512,17944.963925476542,33487.852929574605,-19517.252685696207,-13603.02580631087,-0.06,0.866,0.47400000000000003,192.0,0.0,0.0,0.0,0.0,0.0,0.0,0.0,0.0,0.0,1678557384.963397,0.0
295,39.0,78786.01000142217,58696.26208499219,4154.58579714129,-25084.289918457263,17907.904733169646,33307.630814031465,-19733.975199934866,-13922.56634504394,-0.06,0.866,0.47400000000000003,192.0,0.0,0.0,0.0,0.0,0.0,0.0,0.0,0.0,0.0,1678557384.963417,0.0
296,40.0,78178.42253189356,58568.54421717456,4181.005559087463,-25057.24430766634,17938.526623073416,33331.86010502101,-19756.125778690075,-13951.310688413465,-0.06,0.866,0.47400000000000003,192.0,0.0,0.0,0.0,0.0,0.0,0.0,0.0,0.0,0.0,1678557384.963436,0.0
297,41.0,78651.92188643478,58764.39020209196,4174.657663662156,-25041.01694119179,17994.294225489408,33495.541929667226,-19551.20498552382,-13644.60005099774,-0.06,0.866,0.47400000000000003,192.0,0.0,0.0,0.0,0.0,0.0,0.0,0.0,0.0,0.0,1678557384.963456,0.0
298,42.0,79350.9279907856,58922.79701504672,4143.432276658092,-25069.426008394483,17960.31957391734,33487.62941213005,-19496.66672905287,-13568.045326238314,-0.06,0.866,0.47400000000000003,192.0,0.0,0.0,0.0,0.0,0.0,0.0,0.0,0.0,0.0,1678557384.963476,0.0
299,43.0,78929.59760780307,58736.115245356,4142.96289002453,-25092.78358135028,17896.371233030706,33300.142979638935,-19712.60693223559,-13880.522713723507,-0.06,0.866,0.47400000000000003,192.0,0.0,0.0,0.0,0.0,0.0,0.0,0.0,0.0,0.0,1678557384.963512,0.0
300,44.0,78208.7091456305,58565.90671132883,4187.1746405571275,-25056.23847916585,17923.55095428836,33262.86026988748,-19777.315232433706,-13982.62548239535,-0.06,0.866,0.47400000000000003,192.0,0.0,0.0,0.0,0.0,0.0,0.0,0.0,0.0,0.0,1678557384.963532,0.0
301,45.0,78501.94168113968,58718.36796025848,4187.576971957323,-25031.316284098182,17973.596510123793,33453.38653962452,-19583.458552772827,-13695.293807422377,-0.06,0.866,0.47400000000000003,192.0,0.0,0.0,0.0,0.0,0.0,0.0,0.0,0.0,0.0,1678557385.023522,0.0
302,46.0,79292.67934473508,58922.0594074797,4156.709212864544,-25052.259868652807,17975.80933282487,33522.051098591226,-19473.80089447509,-13541.402046847588,-0.06,0.866,0.47400000000000003,192.0,0.0,0.0,0.0,0.0,0.0,0.0,0.0,0.0,0.0,1678557385.023562,0.0
303,47.0,79075.4650921184,58790.117059960015,4155.926901808608,-25079.976031777387,17923.77447173291,33332.17302944339,-19658.38160018702,-13812.104023945813,-0.056,0.87,0.47600000000000003,192.0,254.0,64.0,27.0,48.0,14.0,224.0,0.0,0.0,0.0,1678557385.023585,0.0
304,48.0,78286.91789947962,58579.630682424395,4191.73439642601,-25061.28997341275,17925.562611289337,33273.7008659483,-19773.649546343036,-13988.503991187095,-0.056,0.87,0.47600000000000003,192.0,0.0,0.0,0.0,0.0,0.0,0.0,0.0,0.0,0.0,1678557385.023606,0.0
305,49.0,78371.80982492087,58677.218398716264,4195.288323794403,-25034.713749255392,17972.993013023497,33435.66160627146,-19617.969646211823,-13747.328668514332,-0.056,0.87,0.47600000000000003,192.0,0.0,0.0,0.0,0.0,0.0,0.0,0.0,0.0,0.0,1678557385.023626,0.0
306,50.0,79191.15772141906,58903.574514815155,4159.905512321653,-25054.67385705398,17992.997824310998,33532.668177207495,-19467.162426371866,-13532.036665920814,-0.056,0.87,0.47600000000000003,192.0,0.0,0.0,0.0,0.0,0.0,0.0,0.0,0.0,0.0,1678557385.023646,0.0
307,51.0,79191.40359060808,58827.511528433744,4149.176674983105,-25087.26270046982,17935.106806171752,33388.94646035987,-19618.68490203439,-13755.1964825626,-0.056,0.87,0.47600000000000003,192.0,0.0,0.0,0.0,0.0,0.0,0.0,0.0,0.0,0.0,1678557385.023665,0.0
308,52.0,78388.23835709553,58592.17001106382,4182.793698643887,-25070.320078172696,17921.986332176486,33266.235383300234,-19774.230691698875,-13988.705156887194,-0.056,0.87,0.47600000000000003,192.0,0.0,0.0,0.0,0.0,0.0,0.0,0.0,0.0,0.0,1678557385.023685,0.0
309,53.0,78273.30568710635,58631.86670921645,4197.791719173399,-25038.58060104616,17964.119370474742,33384.81138763564,-19657.107550753066,-13803.722119775071,-0.056,0.87,0.47600000000000003,192.0,0.0,0.0,0.0,0.0,0.0,0.0,0.0,0.0,0.0,1678557385.023705,0.0
310,54.0,79068.60310657062,58874.360784812074,4170.522590937923,-25045.57669706067,17983.9453678066,33536.33386329816,-19470.872815951447,-13536.3952560896,-0.056,0.87,0.47600000000000003,192.0,0.0,0.0,0.0,0.0,0.0,0.0,0.0,0.0,0.0,1678557385.023724,0.0
311,55.0,79280.83292017377,58861.86615966156,4145.220416214516,-25076.57856662018,17934.01157069344,33409.398306536474,-19581.625709727494,-13691.426955631609,-0.056,0.87,0.47600000000000003,192.0,0.0,0.0,0.0,0.0,0.0,0.0,0.0,0.0,0.0,1678557385.023744,0.0
312,56.0,78511.35176555536,58622.00958991166,4172.869524105731,-25069.358953161118,17915.884305940188,33264.44724374381,-19771.6155375976,-13973.461267168674,-0.056,0.87,0.47600000000000003,192.0,0.0,0.0,0.0,0.0,0.0,0.0,0.0,0.0,0.0,1678557385.023764,0.0
313,57.0,78211.19018926503,58613.180650851806,4205.190146588105,-25028.81288871919,17964.164073963653,33367.89111708297,-19687.841199379112,-13848.380905196776,-0.058,0.862,0.47600000000000003,192.0,254.0,48.0,26.0,240.0,14.0,224.0,0.0,0.0,0.0,1678557385.023784,0.0
314,58.0,78931.81043050413,58849.617403700046,4178.233942775005,-25037.418310334484,17990.628539398735,33545.1180988691,-19485.624967291948,-13555.997735976904,-0.058,0.862,0.47600000000000003,192.0,0.0,0.0,0.0,0.0,0.0,0.0,0.0,0.0,0.0,1678557385.023804,0.0
315,59.0,79344.64715059366,58893.113898410076,4149.444895916569,-25078.478464898883,17949.188405178596,33449.78790876721,-19538.553898162118,-13638.185100339068,-0.058,0.862,0.47600000000000003,192.0,0.0,0.0,0.0,0.0,0.0,0.0,0.0,0.0,0.0,1678557385.023824,0.0
316,60.0,78666.316409864,58657.7947327846,4172.735413638999,-25083.10527600113,17910.16225935963,33257.2499820292,-19750.87311874308,-13949.209624434665,-0.058,0.862,0.47600000000000003,192.0,0.0,0.0,0.0,0.0,0.0,0.0,0.0,0.0,0.0,1678557385.083751,0.0
317,61.0,78176.58968884822,58578.088412056975,4198.6410854627,-25052.125758186074,17945.902698743666,33315.69979377983,-19732.94701968992,-13918.408920575253,-0.058,0.862,0.47600000000000003,192.0,0.0,0.0,0.0,0.0,0.0,0.0,0.0,0.0,0.0,1678557385.08379,0.0
318,62.0,78773.38126580493,58795.570885607114,4177.943370097086,-25050.00234246282,18001.379728481737,33514.78678164325,-19518.973770019267,-13606.199754023524,-0.058,0.862,0.47600000000000003,192.0,0.0,0.0,0.0,0.0,0.0,0.0,0.0,0.0,0.0,1678557385.083814,0.0
319,63.0,79366.06012178185,58915.398587632015,4151.680070362099,-25079.126665488086,17968.74618157699,33504.61673791608,-19511.977674004756,-13601.729405132462,-0.058,0.862,0.47600000000000003,192.0,0.0,0.0,0.0,0.0,0.0,0.0,0.0,0.0,0.0,1678557385.083834,0.0
320,64.0,78818.7553070492,58713.651742178416,4170.991977571485,-25084.58049113518,17910.49753552646,33291.02346790117,-19724.542763774727,-13911.435176305196,-0.058,0.862,0.47600000000000003,192.0,0.0,0.0,0.0,0.0,0.0,0.0,0.0,0.0,0.0,1678557385.083871,0.0
321,65.0,78186.22329070847,58575.62972016689,4200.585687230312,-25054.249173909328,17926.322570600816,33300.768828483684,-19754.829377511665,-13953.322345414443,-0.058,0.862,0.47600000000000003,192.0,0.0,0.0,0.0,0.0,0.0,0.0,0.0,0.0,0.0,1678557385.083891,0.0
322,66.0,78624.92097913277,58763.65259452494,4198.283457551415,-25033.774975988268,17971.674260100634,33486.91415630748,-19553.10488380252,-13648.265737088412,-0.058,0.862,0.47600000000000003,192.0,0.0,0.0,0.0,0.0,0.0,0.0,0.0,0.0,0.0,1678557385.083911,0.0
323,67.0,79351.71030184154,58935.69397159744,4171.01432931594,-25058.943040244943,17966.645117598193,33500.28049949175,-19480.70758351178,-13553.337878386723,-0.052000000000000005,0.868,0.47600000000000003,192.0,254.0,96.0,27.0,32.0,14.0,224.0,0.0,0.0,0.0,1678557385.083931,0.0
324,68.0,78976.51391941475,58758.8693212115,4176.334044496303,-25077.070304998197,17919.0806053973,33321.75711652722,-19686.07541156714,-13855.913443078214,-0.052000000000000005,0.868,0.47600000000000003,192.0,0.0,0.0,0.0,0.0,0.0,0.0,0.0,0.0,0.0,1678557385.08395,0.0
325,69.0,78226.6128929392,58569.30417648604,4203.647876220689,-25054.025656464775,17926.054349667353,33285.793159698624,-19773.582491109668,-13982.379613206342,-0.052000000000000005,0.868,0.47600000000000003,192.0,0.0,0.0,0.0,0.0,0.0,0.0,0.0,0.0,0.0,1678557385.08397,0.0
326,70.0,78473.68907614816,58711.550678199616,4202.373826786737,-25029.170516630475,17977.195140981097,33450.592571567606,-19590.432297042884,-13706.223810461022,-0.052000000000000005,0.868,0.47600000000000003,192.0,0.0,0.0,0.0,0.0,0.0,0.0,0.0,0.0,0.0,1678557385.083989,0.0
327,71.0,79274.32856253727,58923.311105169196,4172.176620027616,-25050.85170875212,17980.70436486058,33515.05500257671,-19468.928214183834,-13538.362209601666,-0.052000000000000005,0.868,0.47600000000000003,192.0,0.0,0.0,0.0,0.0,0.0,0.0,0.0,0.0,0.0,1678557385.084009,0.0
328,72.0,79099.53792089676,58797.78370830819,4163.213570501038,-25085.228691724384,17924.847355466765,33355.709416354824,-19654.671210607437,-13806.516087831986,-0.052000000000000005,0.868,0.47600000000000003,192.0,0.0,0.0,0.0,0.0,0.0,0.0,0.0,0.0,0.0,1678557385.084029,0.0
329,73.0,78306.11804796672,58578.1778190348,4192.606114459767,-25072.44349389595,17924.668541511124,33262.97202860976,-19782.34437493615,-14002.518534960573,-0.052000000000000005,0.868,0.47600000000000003,192.0,0.0,0.0,0.0,0.0,0.0,0.0,0.0,0.0,0.0,1678557385.084049,0.0
330,74.0,78353.01200783397,58664.45555263228,4197.54584998439,-25043.38622610405,17969.55084437738,33413.0863443716,-19634.666399319936,-13773.3013955714,-0.052000000000000005,0.868,0.47600000000000003,192.0,0.0,0.0,0.0,0.0,0.0,0.0,0.0,0.0,0.0,1678557385.084069,0.0
331,75.0,79174.77389273333,58905.407357860495,4171.640178160689,-25054.316229142696,17975.429353169126,33544.55930525772,-19472.70565899678,-13540.955011958482,-0.052000000000000005,0.868,0.47600000000000003,192.0,0.0,0.0,0.0,0.0,0.0,0.0,0.0,0.0,0.0,1678557385.143704,0.0
332,76.0,79223.00895726788,58851.9419851234,4165.135820524195,-25080.266604455308,17921.718111243023,33396.0319633522,-19613.298131620664,-13743.260651023467,-0.052000000000000005,0.868,0.47600000000000003,192.0,0.0,0.0,0.0,0.0,0.0,0.0,0.0,0.0,0.0,1678557385.143744,0.0
333,77.0,78422.12360168977,58610.58784849499,4193.321370282337,-25069.24719443884,17906.608331991236,33272.315057792075,-19778.969261523398,-13985.039470796522,-0.054,0.868,0.464,192.0,254.0,80.0,27.0,32.0,14.0,128.0,0.0,0.0,0.0,1678557385.143767,0.0
334,78.0,78259.62641949969,58636.58292729651,4208.140576856205,-25037.66417952349,17946.12621618822,33372.38381771849,-19675.503036439783,-13817.468442615085,-0.054,0.868,0.464,192.0,0.0,0.0,0.0,0.0,0.0,0.0,0.0,0.0,0.0,1678557385.143787,0.0
335,79.0,79045.96078943739,58883.83792446112,4187.3534545127695,-25037.775938245766,17977.66452761466,33518.54187471174,-19480.059382922576,-13536.931697956526,-0.054,0.868,0.464,192.0,0.0,0.0,0.0,0.0,0.0,0.0,0.0,0.0,0.0,1678557385.143808,0.0
336,80.0,79310.62779553268,58887.011872173774,4167.773326369921,-25068.219014193895,17938.191346906584,33423.63636775451,-19572.506197989725,-13672.47267633351,-0.054,0.868,0.464,192.0,0.0,0.0,0.0,0.0,0.0,0.0,0.0,0.0,0.0,1678557385.143828,0.0
337,81.0,78554.42357712073,58642.57319481054,4192.539059226401,-25068.621345594092,17922.58982927678,33266.01186585568,-19768.083961973665,-13965.593453120406,-0.054,0.868,0.464,192.0,0.0,0.0,0.0,0.0,0.0,0.0,0.0,0.0,0.0,1678557385.143847,0.0
338,82.0,78201.1095525157,58610.252572328165,4218.400027561192,-25035.116080655585,17964.097018730285,33361.02913153519,-19701.252246052296,-13866.88814960577,-0.054,0.868,0.464,192.0,0.0,0.0,0.0,0.0,0.0,0.0,0.0,0.0,0.0,1678557385.143867,0.0
339,83.0,78897.94753765436,58843.42597048593,4192.717873182043,-25034.311417855195,17997.08819354632,33520.285310779254,-19491.302310383595,-13561.87624476865,-0.054,0.868,0.464,192.0,0.0,0.0,0.0,0.0,0.0,0.0,0.0,0.0,0.0,1678557385.143886,0.0
340,84.0,79357.231182722,58912.872840508564,4165.515800179935,-25069.53776711676,17960.721905317536,33474.352475923595,-19525.075796255565,-13621.756568164417,-0.054,0.868,0.464,192.0,0.0,0.0,0.0,0.0,0.0,0.0,0.0,0.0,0.0,1678557385.143906,0.0
341,85.0,78697.4747416347,58681.062898762575,4184.157155055661,-25077.40558116503,17922.232201365496,33277.18773808333,-19734.04225516823,-13939.531319085518,-0.054,0.868,0.464,192.0,0.0,0.0,0.0,0.0,0.0,0.0,0.0,0.0,0.0,1678557385.143926,0.0
342,86.0,78174.06394172477,58581.9776155922,4214.041437392407,-25037.57477254567,17947.534376088905,33322.07004094959,-19721.547630017714,-13915.32437984042,-0.054,0.868,0.464,192.0,0.0,0.0,0.0,0.0,0.0,0.0,0.0,0.0,0.0,1678557385.143962,0.0
343,87.0,78737.50671595415,58794.90033327346,4196.249448805982,-25027.62824626306,17994.540094678414,33502.314508237185,-19514.168144961375,-13602.399957466121,-0.056,0.87,0.466,192.0,254.0,64.0,27.0,48.0,14.0,144.0,0.0,0.0,0.0,1678557385.143983,0.0
344,88.0,79355.86772631023,58919.600715589615,4154.205817485549,-25067.839034538156,17956.7879982934,33488.09879876361,-19501.38294713294,-13585.770259591372,-0.056,0.87,0.466,192.0,0.0,0.0,0.0,0.0,0.0,0.0,0.0,0.0,0.0,1678557385.144002,0.0
345,89.0,78838.24602821423,58713.294114267126,4159.570236154823,-25085.496912657847,17902.182686589087,33304.30040410762,-19719.46891778337,-13902.382719800797,-0.056,0.87,0.466,192.0,0.0,0.0,0.0,0.0,0.0,0.0,0.0,0.0,0.0,1678557385.144022,0.0
346,90.0,78180.47889238344,58568.00777530763,4195.6906551945995,-25053.645676809036,17927.88719271269,33296.34318308153,-19758.450360113427,-13956.675107082738,-0.056,0.87,0.466,192.0,0.0,0.0,0.0,0.0,0.0,0.0,0.0,0.0,0.0,1678557385.20359,0.0
347,91.0,78579.1446064883,58746.978193161274,4190.30388478087,-25032.456223065405,17974.6917456021,33478.57695562565,-19558.849282127536,-13654.010135413426,-0.056,0.87,0.466,192.0,0.0,0.0,0.0,0.0,0.0,0.0,0.0,0.0,0.0,1678557385.20363,0.0
348,92.0,79323.41299336113,58922.75231155781,4151.322442450814,-25064.62038333659,17955.69276281509,33502.672136148474,-19488.7989150046,-13548.331087628734,-0.056,0.87,0.466,192.0,0.0,0.0,0.0,0.0,0.0,0.0,0.0,0.0,0.0,1678557385.203653,0.0
349,93.0,78985.23109975233,58753.8178269646,4151.613015128733,-25085.80983708022,17904.708433712534,33327.1662386854,-19697.22893205034,-13849.07380927489,-0.056,0.87,0.466,192.0,0.0,0.0,0.0,0.0,0.0,0.0,0.0,0.0,0.0,1678557385.203673,0.0
350,94.0,78232.1114220752,58566.10787702893,4192.650817948677,-25050.270563396283,17921.002855420455,33286.73193296575,-19780.757401079823,-13979.295072471508,-0.056,0.87,0.466,192.0,0.0,0.0,0.0,0.0,0.0,0.0,0.0,0.0,0.0,1678557385.203693,0.0
351,95.0,78440.40732865421,58699.592494916025,4197.50114649548,-25025.14720262852,17968.18738796561,33450.48081284533,-19604.178619882896,-13710.314179696345,-0.056,0.87,0.466,192.0,0.0,0.0,0.0,0.0,0.0,0.0,0.0,0.0,0.0,1678557385.203713,0.0
352,96.0,79249.92045759207,58914.30335215371,4164.532323423901,-25049.756473273814,17977.8433415703,33515.27852002127,-19474.873778208945,-13525.889936195605,-0.056,0.87,0.466,192.0,0.0,0.0,0.0,0.0,0.0,0.0,0.0,0.0,0.0,1678557385.203733,0.0
353,97.0,79127.05291832125,58810.479499158806,4158.184427998594,-25076.019773008797,17922.008683920943,33352.848393064545,-19650.469082649837,-13782.018575908969,-0.052000000000000005,0.876,0.466,192.0,254.0,96.0,27.0,96.0,14.0,144.0,0.0,0.0,0.0,1678557385.203753,0.0
354,98.0,78319.59614987328,58583.475182470705,4187.196992301582,-25060.261793167807,17920.35465483125,33262.748511165206,-19788.11112500562,-13991.052090055,-0.052000000000000005,0.876,0.466,192.0,0.0,0.0,0.0,0.0,0.0,0.0,0.0,0.0,0.0,1678557385.203773,0.0
355,99.0,78322.47952490802,58658.554692096084,4196.137690083706,-25031.271580609275,17971.85307405628,33422.00469040927,-19642.064826734644,-13770.216854836566,-0.052000000000000005,0.876,0.466,192.0,0.0,0.0,0.0,0.0,0.0,0.0,0.0,0.0,0.0,1678557385.203792,0.0
356,100.0,79145.76132843034,58902.27811363675,4167.505105436457,-25041.57573480317,17984.906492818176,33543.73229071287,-19466.38011531593,-13522.268953593846,-0.052000000000000005,0.876,0.466,192.0,0.0,0.0,0.0,0.0,0.0,0.0,0.0,0.0,0.0,1678557385.203812,0.0
357,101.0,79237.0011492969,58852.65724094597,4150.942462795075,-25074.611613108114,17926.568439789826,33388.09709407057,-19600.73645123678,-13721.780624601917,-0.052000000000000005,0.876,0.466,192.0,0.0,0.0,0.0,0.0,0.0,0.0,0.0,0.0,0.0,1678557385.203832,0.0
358,102.0,78438.88741003125,58612.130118862406,4180.916152109641,-25064.665086825502,17915.101994884255,33255.01480758367,-19771.213206197408,-13977.90926431528,-0.052000000000000005,0.876,0.466,192.0,0.0,0.0,0.0,0.0,0.0,0.0,0.0,0.0,0.0,1678557385.203852,0.0
359,103.0,78237.7217099335,58623.77537772362,4200.138652341206,-25034.646694022023,17958.531434360913,33386.37600974751,-19671.74794337129,-13822.586992095352,-0.052000000000000005,0.876,0.466,192.0,0.0,0.0,0.0,0.0,0.0,0.0,0.0,0.0,0.0,1678557385.203872,0.0
360,104.0,79007.69460292991,58865.487142263315,4174.367090984237,-25043.967371459887,17982.716021861557,33557.09863389714,-19476.773676487646,-13544.285421882323,-0.052000000000000005,0.876,0.466,192.0,0.0,0.0,0.0,0.0,0.0,0.0,0.0,0.0,0.0,1678557385.203892,0.0
361,105.0,79313.98055720098,58881.33452908212,4153.758782596443,-25080.82539806669,17936.336152116794,33422.78700146521,-19557.8658053715,-13669.477542576498,-0.052000000000000005,0.876,0.466,192.0,0.0,0.0,0.0,0.0,0.0,0.0,0.0,0.0,0.0,1678557385.263312,0.0
362,106.0,78573.93665003021,58637.81227324156,4178.300998008371,-25080.19954922194,17913.02328264991,33247.16934527986,-19755.85755775661,-13963.71590658616,-0.058,0.87,0.468,192.0,254.0,48.0,27.0,48.0,14.0,160.0,0.0,0.0,0.0,1678557385.263351,0.0
363,107.0,78177.1037789707,58591.857086641445,4202.351475042281,-25044.30264762672,17943.712227787048,33314.470447834785,-19708.673025211458,-13885.820077159415,-0.058,0.87,0.468,192.0,0.0,0.0,0.0,0.0,0.0,0.0,0.0,0.0,0.0,1678557385.263391,0.0
364,108.0,78845.84562132903,58819.621362641024,4176.043471818384,-25042.782729003757,17974.73644909101,33493.932604066445,-19503.260493667185,-13579.154143232601,-0.058,0.87,0.468,192.0,0.0,0.0,0.0,0.0,0.0,0.0,0.0,0.0,0.0,1678557385.263412,0.0
365,109.0,79345.58592386078,58905.966151471875,4146.762686581932,-25076.243290453353,17943.578117320314,33440.936617962914,-19532.00483703671,-13619.163765807602,-0.058,0.87,0.468,192.0,0.0,0.0,0.0,0.0,0.0,0.0,0.0,0.0,0.0,1678557385.263432,0.0
366,110.0,78720.8323145905,58688.70719536629,4166.20870425805,-25078.59022362116,17916.55485827385,33271.97978162525,-19740.166633148987,-13929.294220124988,-0.058,0.87,0.468,192.0,0.0,0.0,0.0,0.0,0.0,0.0,0.0,0.0,0.0,1678557385.263451,0.0
367,111.0,78164.40798812009,58581.64233942537,4191.913210381653,-25047.72246452838,17940.493576585483,33322.718241538794,-19741.95477270541,-13928.914240469247,-0.058,0.87,0.468,192.0,0.0,0.0,0.0,0.0,0.0,0.0,0.0,0.0,0.0,1678557385.263471,0.0
368,112.0,78694.63607008888,58784.171495934905,4170.544942682379,-25043.09565342613,17968.276794943427,33485.126016751055,-19544.47711044277,-13623.477652487476,-0.058,0.87,0.468,192.0,0.0,0.0,0.0,0.0,0.0,0.0,0.0,0.0,0.0,1678557385.263491,0.0
369,113.0,79343.57426685981,58915.66680856548,4131.071761974306,-25087.44151442546,17933.02809393741,33489.797531342214,-19518.280865941153,-13589.21242823749,-0.058,0.87,0.468,192.0,0.0,0.0,0.0,0.0,0.0,0.0,0.0,0.0,0.0,1678557385.263511,0.0
370,114.0,78867.30329600612,58720.33491377055,4143.119352235717,-25097.96918606391,17885.932968370078,33294.21976735828,-19727.560249276194,-13895.27486506401,-0.058,0.87,0.468,192.0,0.0,0.0,0.0,0.0,0.0,0.0,0.0,0.0,0.0,1678557385.26353,0.0
371,115.0,78187.16206397559,58571.98638582068,4183.866582377742,-25058.831281522667,17910.944570415566,33285.23436608724,-19776.53292137777,-13966.509874643074,-0.058,0.87,0.468,192.0,0.0,0.0,0.0,0.0,0.0,0.0,0.0,0.0,0.0,1678557385.26355,0.0
372,116.0,78544.32058862694,58741.92669891438,4183.464250977547,-25041.754548758814,17962.8900245297,33458.415682126964,-19576.797732925144,-13669.18696989858,-0.058,0.87,0.468,192.0,254.0,48.0,27.0,48.0,14.0,160.0,0.0,0.0,0.0,1678557385.26357,0.0
373,117.0,79309.82313273229,58920.76300630129,4153.91524480763,-25070.074208983686,17960.36427740625,33505.24258676083,-19481.869874223456,-13544.687753282518,-0.058,0.87,0.468,192.0,0.0,0.0,0.0,0.0,0.0,0.0,0.0,0.0,0.0,1678557385.26359,0.0
374,118.0,79025.88892291652,58769.084068427575,4158.854980332253,-25087.173293491996,17915.660788495636,33337.24687543474,-19673.580786416627,-13832.0641317444,-0.058,0.87,0.468,192.0,0.0,0.0,0.0,0.0,0.0,0.0,0.0,0.0,0.0,1678557385.263609,0.0
375,119.0,78254.64198048615,58568.25364449664,4186.8840678792085,-25061.647601324035,17910.40812854864,33269.76695892417,-19780.15390397953,-13988.213418509176,-0.058,0.87,0.468,192.0,0.0,0.0,0.0,0.0,0.0,0.0,0.0,0.0,0.0,1678557385.263629,0.0
376,120.0,78413.1605521632,58688.416622688375,4188.336931268804,-25033.23853412134,17956.966812249044,33433.605245781575,-19610.347701352563,-13726.742711870995,-0.058,0.87,0.468,192.0,0.0,0.0,0.0,0.0,0.0,0.0,0.0,0.0,0.0,1678557385.323557,0.0
377,121.0,79233.2013527395,58915.46564286538,4161.090154777784,-25049.130624429064,17971.07076300034,33519.70416542341,-19467.90003393889,-13525.465253050954,-0.058,0.87,0.468,192.0,0.0,0.0,0.0,0.0,0.0,0.0,0.0,0.0,0.0,1678557385.323597,0.0
378,122.0,79152.31038955574,58815.12866200551,4146.941500537575,-25086.949776047444,17922.008683920943,33365.90181182645,-19638.68971332189,-13775.469514783565,-0.058,0.87,0.468,192.0,0.0,0.0,0.0,0.0,0.0,0.0,0.0,0.0,0.0,1678557385.32362,0.0
379,123.0,78348.51930719845,58589.063118584534,4181.407890487658,-25073.091694485152,17930.100015413766,33270.66102870239,-19778.455171400925,-13993.466078456173,-0.058,0.87,0.468,192.0,0.0,0.0,0.0,0.0,0.0,0.0,0.0,0.0,0.0,1678557385.323641,0.0
380,124.0,78306.85565553376,58651.8938722484,4191.823803403831,-25039.72054001338,17969.707306588567,33398.445951753376,-19643.338876168596,-13785.259578854988,-0.058,0.87,0.468,192.0,0.0,0.0,0.0,0.0,0.0,0.0,0.0,0.0,0.0,1678557385.32366,0.0
381,125.0,79117.66518565002,58892.197476887406,4161.313672222337,-25049.510604084804,17978.98328053752,33532.77993592977,-19467.698868238793,-13534.294192110801,-0.058,0.87,0.468,192.0,0.0,0.0,0.0,0.0,0.0,0.0,0.0,0.0,0.0,1678557385.32368,0.0
382,126.0,79256.22364952847,58859.206302071376,4146.159189481639,-25083.507607401327,17928.580096790804,33400.2340913098,-19590.20877959833,-13712.95168554207,-0.064,0.872,0.47000000000000003,192.0,254.0,0.0,27.0,64.0,14.0,176.0,0.0,0.0,0.0,1678557385.3237,0.0
383,127.0,78469.4198929572,58617.025150898124,4174.925884595619,-25077.025601509285,17904.39550929016,33249.58333368103,-19770.18502595246,-13979.831514338437,-0.064,0.872,0.47000000000000003,192.0,0.0,0.0,0.0,0.0,0.0,0.0,0.0,0.0,0.0,1678557385.32372,0.0
384,128.0,78234.6148174542,58622.903659689866,4198.797547673887,-25040.301685369217,17949.6354400677,33349.65209360744,-19675.257167250773,-13837.875585302781,-0.064,0.872,0.47000000000000003,192.0,0.0,0.0,0.0,0.0,0.0,0.0,0.0,0.0,0.0,1678557385.323756,0.0
385,129.0,78992.96480333386,58865.39773528549,4174.814125873342,-25044.30264762672,17979.542074148903,33499.788761113734,-19475.387868331418,-13545.917099227561,-0.064,0.872,0.47000000000000003,192.0,0.0,0.0,0.0,0.0,0.0,0.0,0.0,0.0,0.0,1678557385.323775,0.0
386,130.0,79338.723938313,58894.924389710955,4151.188331984083,-25079.976031777387,17940.001838207467,33419.61305375255,-19548.43336921136,-13655.932385436581,-0.064,0.872,0.47000000000000003,192.0,0.0,0.0,0.0,0.0,0.0,0.0,0.0,0.0,0.0,1678557385.323795,0.0
387,131.0,78620.45063024171,58655.0454682166,4168.8685618482305,-25085.452209168936,17909.514058770426,33270.25869730219,-19754.359990878107,-13962.821836807947,-0.064,0.872,0.47000000000000003,192.0,0.0,0.0,0.0,0.0,0.0,0.0,0.0,0.0,0.0,1678557385.323815,0.0
388,132.0,78195.07458151276,58598.02616811111,4194.774233671932,-25048.460072095404,17941.387646363695,33325.73572704026,-19716.742004959822,-13899.901676166259,-0.064,0.872,0.47000000000000003,192.0,0.0,0.0,0.0,0.0,0.0,0.0,0.0,0.0,0.0,1678557385.323835,0.0
389,133.0,78839.49772590373,58823.17529000942,4171.371957227225,-25046.850746494623,17974.490579902005,33527.348462027134,-19507.015586735677,-13589.011262537393,-0.064,0.872,0.47000000000000003,192.0,0.0,0.0,0.0,0.0,0.0,0.0,0.0,0.0,0.0,1678557385.323854,0.0
390,134.0,79373.01151430745,58919.89128826753,4140.124218478706,-25079.57370037719,17941.40999810815,33474.1513102235,-19521.320703187073,-13609.97719883647,-0.064,0.872,0.47000000000000003,192.0,0.0,0.0,0.0,0.0,0.0,0.0,0.0,0.0,0.0,1678557385.323874,0.0
391,135.0,78768.91091691387,58695.79269835862,4153.959948296541,-25089.006136537333,17903.993177889966,33284.07207537557,-19739.8090052377,-13925.42736833422,-0.064,0.872,0.47000000000000003,192.0,0.0,0.0,0.0,0.0,0.0,0.0,0.0,0.0,0.0,1678557385.383774,0.0
392,136.0,78187.72085758697,58580.36828999142,4185.073576578328,-25050.136452929553,17939.867727740733,33309.82128498808,-19749.152034420018,-13933.161071915756,-0.062,0.858,0.47600000000000003,192.0,254.0,16.0,26.0,208.0,14.0,224.0,0.0,0.0,0.0,1678557385.383815,0.0
393,137.0,78687.21529092971,58783.120963945505,4172.82482061682,-25037.127737656563,17972.858902556767,33496.63716514554,-19539.71618887379,-13621.51069897541,-0.062,0.858,0.47600000000000003,192.0,0.0,0.0,0.0,0.0,0.0,0.0,0.0,0.0,0.0,1678557385.383837,0.0
394,138.0,79363.84729908076,58932.69883784042,4139.230148700493,-25068.420179893994,17950.596565079282,33493.53027266625,-19497.694909297814,-13564.401991892099,-0.062,0.858,0.47600000000000003,192.0,0.0,0.0,0.0,0.0,0.0,0.0,0.0,0.0,0.0,1678557385.383858,0.0
395,139.0,78921.41686933242,58745.23475709376,4144.639270858678,-25087.083886514174,17895.924198141598,33310.22361638828,-19711.37758629055,-13878.108725322334,-0.062,0.858,0.47600000000000003,192.0,0.0,0.0,0.0,0.0,0.0,0.0,0.0,0.0,0.0,1678557385.383878,0.0
396,140.0,78214.47589569997,58577.50726670114,4179.530343953413,-25059.52418560078,17916.68896874058,33270.52691823565,-19775.124761477087,-13976.188179992221,-0.062,0.858,0.47600000000000003,192.0,0.0,0.0,0.0,0.0,0.0,0.0,0.0,0.0,0.0,1678557385.383898,0.0
397,141.0,78538.84441123539,58743.37956230397,4184.090099822295,-25031.204525375906,17967.60624260977,33448.51385933326,-19574.361392779516,-13681.771002026917,-0.062,0.858,0.47600000000000003,192.0,0.0,0.0,0.0,0.0,0.0,0.0,0.0,0.0,0.0,1678557385.383918,0.0
398,142.0,79317.24391189146,58940.03021002177,4151.30009070636,-25054.09271169814,17964.07466698583,33500.54872042522,-19467.944737427802,-13538.988058446415,-0.062,0.858,0.47600000000000003,192.0,0.0,0.0,0.0,0.0,0.0,0.0,0.0,0.0,0.0,1678557385.383937,0.0
399,143.0,79067.17259492548,58798.14133621947,4150.495427905968,-25075.751552075333,17912.129212871696,33323.008814216715,-19663.65661187847,-13821.78232929496,-0.062,0.858,0.47600000000000003,192.0,0.0,0.0,0.0,0.0,0.0,0.0,0.0,0.0,0.0,1678557385.383957,0.0
400,144.0,78290.09184719228,58592.37117676392,4188.247524290982,-25050.605839563115,17920.801689720356,33265.78834841113,-19770.475598630383,-13986.425278952753,-0.062,0.858,0.47600000000000003,192.0,0.0,0.0,0.0,0.0,0.0,0.0,0.0,0.0,0.0,1678557385.383977,0.0
401,145.0,78411.28300562895,58701.29122749463,4191.712044681554,-25019.894542681523,17968.36620192125,33419.50129503028,-19609.20776238534,-13735.124616041734,-0.062,0.858,0.47600000000000003,192.0,0.0,0.0,0.0,0.0,0.0,0.0,0.0,0.0,0.0,1678557385.383997,0.0
402,146.0,79230.8544195717,58928.47435813837,4154.831666330298,-25041.19575514743,17981.866655572256,33525.29210153724,-19464.591975759504,-13525.19703211749,-0.06,0.872,0.47400000000000003,192.0,254.0,32.0,27.0,64.0,14.0,208.0,0.0,0.0,0.0,1678557385.384017,0.0
403,147.0,79196.90211974409,58847.33752576561,4141.6888405905775,-25076.265642197806,17933.20690789305,33389.59466094907,-19623.69169279238,-13762.48315125503,-0.06,0.872,0.47400000000000003,192.0,0.0,0.0,0.0,0.0,0.0,0.0,0.0,0.0,0.0,1678557385.384037,0.0
404,148.0,78386.96430766158,58608.82206068302,4166.879256591708,-25066.274412426283,17921.047558909366,33269.34227577952,-19781.58441562467,-13990.783869121537,-0.06,0.872,0.47400000000000003,192.0,0.0,0.0,0.0,0.0,0.0,0.0,0.0,0.0,0.0,1678557385.384056,0.0
405,149.0,78302.3853066427,58654.79959902759,4185.140631811694,-25033.19383063243,17966.198082709085,33389.25938478224,-19654.246527462787,-13794.803773737405,-0.06,0.872,0.47400000000000003,192.0,0.0,0.0,0.0,0.0,0.0,0.0,0.0,0.0,0.0,1678557385.384076,0.0
406,150.0,79107.89747332304,58896.801936245196,4156.955082053552,-25046.15784241651,17981.397268938694,33512.88688336455,-19469.621118261948,-13532.10372115418,-0.06,0.872,0.47400000000000003,192.0,0.0,0.0,0.0,0.0,0.0,0.0,0.0,0.0,0.0,1678557385.443943,0.0
407,151.0,79293.2604900909,58875.187799356914,4137.240843443971,-25084.088752757165,17922.701587999058,33397.462474997345,-19586.0737068741,-13703.675711593118,-0.06,0.872,0.47400000000000003,192.0,0.0,0.0,0.0,0.0,0.0,0.0,0.0,0.0,0.0,1678557385.443984,0.0
408,152.0,78515.35272781286,58631.93376444981,4166.8122013583425,-25079.64075561056,17902.428555778093,33254.210144783276,-19772.397848653538,-13982.044337039511,-0.06,0.872,0.47400000000000003,192.0,0.0,0.0,0.0,0.0,0.0,0.0,0.0,0.0,0.0,1678557385.44401,0.0
409,153.0,78234.32424477629,58619.21562185474,4189.901553380675,-25042.738025514846,17948.517852844936,33364.15837575893,-19687.684737167925,-13857.500416934541,-0.06,0.872,0.47400000000000003,192.0,0.0,0.0,0.0,0.0,0.0,0.0,0.0,0.0,0.0,1678557385.444034,0.0
410,154.0,78970.59070713409,58861.73204919482,4168.130954281206,-25041.82160399218,17980.771420093944,33530.075374850676,-19483.61331029097,-13558.501131355899,-0.06,0.872,0.47400000000000003,192.0,0.0,0.0,0.0,0.0,0.0,0.0,0.0,0.0,0.0,1678557385.444059,0.0
411,155.0,79363.91435431414,58909.83300326264,4142.694669091066,-25075.28216544177,17929.429463080105,33442.277722630235,-19544.521813931682,-13640.17440559559,-0.06,0.872,0.47400000000000003,192.0,0.0,0.0,0.0,0.0,0.0,0.0,0.0,0.0,0.0,1678557385.444083,0.0
412,156.0,78663.58949704046,58671.98809051372,4161.246616988971,-25075.215110208406,17897.287654553373,33271.48804324723,-19755.455226356415,-13948.293202911998,-0.066,0.878,0.47000000000000003,192.0,253.0,240.0,27.0,112.0,14.0,176.0,0.0,0.0,0.0,1678557385.444107,0.0
413,157.0,78201.98127054946,58603.61410422494,4187.934599868608,-25038.312380112697,17941.87938474171,33325.936892740356,-19723.96161841889,-13901.935684911692,-0.066,0.878,0.47000000000000003,192.0,0.0,0.0,0.0,0.0,0.0,0.0,0.0,0.0,0.0,1678557385.44413,0.0
414,158.0,78818.77765879365,58828.24913600077,4168.622692659223,-25033.01501667679,17975.69757410259,33517.424287488975,-19515.08456648404,-13592.11815501668,-0.066,0.878,0.47000000000000003,192.0,0.0,0.0,0.0,0.0,0.0,0.0,0.0,0.0,0.0,1678557385.444154,0.0
415,159.0,79387.9871830925,58936.319820442186,4138.9842795114855,-25065.357990903616,17941.901736486165,33472.43022590044,-19514.77164206167,-13596.432041696555,-0.066,0.878,0.47000000000000003,192.0,0.0,0.0,0.0,0.0,0.0,0.0,0.0,0.0,0.0,1678557385.444178,0.0
416,160.0,78816.2519116702,58717.71975966928,4152.976471540507,-25078.411409665518,17899.50047725445,33278.3053253061,-19729.28133359925,-13915.570249029428,-0.066,0.878,0.47000000000000003,192.0,0.0,0.0,0.0,0.0,0.0,0.0,0.0,0.0,0.0,1678557385.444201,0.0
417,161.0,78201.42247693807,58588.97371160671,4184.805355644865,-25050.136452929553,17927.998951434965,33292.16340686839,-19755.611688567602,-13953.098827969889,-0.066,0.878,0.47000000000000003,192.0,0.0,0.0,0.0,0.0,0.0,0.0,0.0,0.0,0.0,1678557385.444224,0.0
418,162.0,78670.22796514368,58790.56409484913,4182.994864343985,-25023.157897371995,17981.17375149414,33476.23002245784,-19543.180709264365,-13636.106388104725,-0.066,0.878,0.47000000000000003,192.0,0.0,0.0,0.0,0.0,0.0,0.0,0.0,0.0,0.0,1678557385.444247,0.0
419,163.0,79377.21364226505,58948.76974210379,4154.272872718915,-25051.72342678588,17966.488655387006,33496.525406423265,-19476.10312415399,-13550.476855096444,-0.066,0.878,0.47000000000000003,192.0,0.0,0.0,0.0,0.0,0.0,0.0,0.0,0.0,0.0,1678557385.444271,0.0
420,164.0,78970.43424492292,58767.117114915505,4158.0056140429515,-25073.896357285543,17911.0786808823,33313.911654223404,-19686.723612156347,-13859.713239635616,-0.066,0.878,0.47000000000000003,192.0,0.0,0.0,0.0,0.0,0.0,0.0,0.0,0.0,0.0,1678557385.444292,0.0
421,165.0,78239.10751808972,58587.00675809464,4185.788832400898,-25052.14810993053,17915.68314024009,33281.23340382974,-19763.747723549335,-13972.120162501356,-0.066,0.878,0.47000000000000003,192.0,0.0,0.0,0.0,0.0,0.0,0.0,0.0,0.0,0.0,1678557385.50464,0.0
422,166.0,78519.04076564798,58735.042361622145,4184.559486455856,-25027.561191029694,17967.22626295403,33449.18441166692,-19574.24963405724,-13686.196647429068,-0.062,0.876,0.47200000000000003,192.0,254.0,16.0,27.0,96.0,14.0,192.0,0.0,0.0,0.0,1678557385.504681,0.0
423,167.0,79309.6219670322,58936.14100648654,4142.649965602156,-25054.986781476353,17967.919167032145,33503.11917103758,-19468.771751972647,-13533.377770588133,-0.062,0.876,0.47200000000000003,192.0,0.0,0.0,0.0,0.0,0.0,0.0,0.0,0.0,0.0,1678557385.504707,0.0
424,168.0,79096.7216010954,58798.18603970839,4124.790921782365,-25091.464828427415,17905.803669190846,33316.88443623596,-19664.30481246767,-13814.808585024904,-0.062,0.876,0.47200000000000003,192.0,0.0,0.0,0.0,0.0,0.0,0.0,0.0,0.0,0.0,1678557385.504731,0.0
425,169.0,78299.70309730805,58580.815324880525,4150.562483139334,-25074.34339217465,17894.851314407744,33249.35981623648,-19790.234540728874,-13998.651683169805,-0.062,0.876,0.47200000000000003,192.0,0.0,0.0,0.0,0.0,0.0,0.0,0.0,0.0,0.0,1678557385.504755,0.0
426,170.0,78374.8496621668,58676.14551498241,4158.407945443148,-25046.33665637215,17939.912431229644,33423.52460903223,-19629.41373937294,-13749.899119126692,-0.062,0.876,0.47200000000000003,192.0,0.0,0.0,0.0,0.0,0.0,0.0,0.0,0.0,0.0,1678557385.504777,0.0
427,171.0,79202.51240760236,58913.96807598688,4131.205872441038,-25057.691342555445,17959.157283205663,33534.23279931937,-19469.24113860621,-13522.91715418305,-0.062,0.876,0.47200000000000003,192.0,0.0,0.0,0.0,0.0,0.0,0.0,0.0,0.0,0.0,1678557385.504818,0.0
428,172.0,79217.80100080979,58847.27047053224,4128.322497406304,-25075.170406719495,17915.727843729,33385.37018124702,-19612.672282775915,-13739.57261318834,-0.062,0.876,0.47200000000000003,192.0,0.0,0.0,0.0,0.0,0.0,0.0,0.0,0.0,0.0,1678557385.504839,0.0
429,173.0,78413.85345624131,58610.252572328165,4164.331157723804,-25063.05576122472,17906.29540756886,33264.4025402549,-19768.35218290713,-13976.38934569232,-0.062,0.876,0.47200000000000003,192.0,0.0,0.0,0.0,0.0,0.0,0.0,0.0,0.0,0.0,1678557385.504859,0.0
430,174.0,78295.45626586155,58651.491540848205,4179.39623348668,-25035.87603996707,17955.625707581727,33383.64909692396,-19654.492396651793,-13802.336311618843,-0.062,0.876,0.47200000000000003,192.0,0.0,0.0,0.0,0.0,0.0,0.0,0.0,0.0,0.0,1678557385.504878,0.0
431,175.0,79088.18323471346,58895.125555411054,4151.680070362099,-25045.73315927186,17976.345774691796,33519.033613089756,-19472.1468653854,-13537.378732845633,-0.062,0.874,0.47400000000000003,192.0,254.0,16.0,27.0,80.0,14.0,208.0,0.0,0.0,0.0,1678557385.504899,0.0
432,176.0,79316.39454560215,58883.033261660734,4128.680125317589,-25083.73112484588,17920.980503675997,33408.79480943618,-19577.915320147913,-13688.476525363509,-0.062,0.874,0.47400000000000003,192.0,0.0,0.0,0.0,0.0,0.0,0.0,0.0,0.0,0.0,1678557385.504919,0.0
433,177.0,78548.96975147365,58638.10284591948,4156.664509375633,-25075.237461952864,17901.646244722157,33250.67856915934,-19767.68163057347,-13972.835418323926,-0.062,0.874,0.47400000000000003,192.0,0.0,0.0,0.0,0.0,0.0,0.0,0.0,0.0,0.0,1678557385.504939,0.0
434,178.0,78220.5108667029,58609.045578127574,4175.596436929278,-25045.442586593937,17940.471224841025,33345.2711516942,-19698.45827799538,-13862.976594326092,-0.062,0.874,0.47400000000000003,192.0,0.0,0.0,0.0,0.0,0.0,0.0,0.0,0.0,0.0,1678557385.504958,0.0
435,179.0,78935.92315148392,58847.49398797679,4151.478904662002,-25047.34248487264,17971.540149633904,33502.91800533748,-19489.38006036044,-13562.457390124488,-0.062,0.874,0.47400000000000003,192.0,0.0,0.0,0.0,0.0,0.0,0.0,0.0,0.0,0.0,1678557385.504978,0.0
436,180.0,79373.07856954081,58908.760119528786,4121.9075467476305,-25082.948813789943,17929.094186913277,33433.33702484811,-19540.945534818835,-13638.252155572434,-0.062,0.874,0.47400000000000003,192.0,0.0,0.0,0.0,0.0,0.0,0.0,0.0,0.0,0.0,1678557385.563852,0.0
437,181.0,78698.01118350163,58678.67126210586,4141.86765454622,-25082.635889367568,17896.147715586154,33250.05272031459,-19752.996534466332,-13951.064819224457,-0.062,0.874,0.47400000000000003,192.0,0.0,0.0,0.0,0.0,0.0,0.0,0.0,0.0,0.0,1678557385.563892,0.0
438,182.0,78198.04736352531,58593.71228143124,4162.386555956192,-25053.176290175474,17926.233163622997,33300.16533138339,-19740.166633148987,-13920.442929320685,-0.062,0.874,0.47400000000000003,192.0,0.0,0.0,0.0,0.0,0.0,0.0,0.0,0.0,0.0,1678557385.563914,0.0
439,183.0,78788.71456250126,58818.54847890717,4149.713116850033,-25040.078167924665,17965.415771653148,33498.20178725741,-19527.9591712903,-13602.087033043746,-0.062,0.874,0.47400000000000003,192.0,0.0,0.0,0.0,0.0,0.0,0.0,0.0,0.0,0.0,1678557385.563935,0.0
440,184.0,79395.16209306265,58941.0136867778,4128.546014850857,-25070.00715375032,17945.96975397703,33479.605135870595,-19505.42861287935,-13585.92672180256,-0.062,0.874,0.47400000000000003,192.0,0.0,0.0,0.0,0.0,0.0,0.0,0.0,0.0,0.0,1678557385.563955,0.0
441,185.0,78854.33928422205,58725.20759406181,4139.00663125594,-25088.357935948126,17902.652073222645,33280.02640962916,-19719.111289872086,-13909.714091982138,-0.058,0.868,0.47400000000000003,192.0,254.0,48.0,27.0,32.0,14.0,208.0,0.0,0.0,0.0,1678557385.563975,0.0
442,186.0,78211.57016892078,58585.82211563851,4170.813163615842,-25058.406598378016,17922.79099497688,33298.06426740459,-19753.488272844348,-13959.08909548391,-0.058,0.868,0.47400000000000003,192.0,0.0,0.0,0.0,0.0,0.0,0.0,0.0,0.0,0.0,1678557385.563995,0.0
443,187.0,78638.73435720615,58774.13556267448,4167.415698458636,-25035.339598100138,17971.003707766977,33468.4516153874,-19545.415883709895,-13651.529091778886,-0.058,0.868,0.47400000000000003,192.0,0.0,0.0,0.0,0.0,0.0,0.0,0.0,0.0,0.0,1678557385.564014,0.0
444,188.0,79364.69666537007,58942.66771586749,4133.731619564488,-25064.352162403127,17950.30599240136,33502.873301848565,-19476.885435209922,-13556.82475052175,-0.058,0.868,0.47400000000000003,192.0,0.0,0.0,0.0,0.0,0.0,0.0,0.0,0.0,0.0,1678557385.564034,0.0
445,189.0,78998.82096038116,58772.079202184585,4142.761724324432,-25080.981860277876,17900.014567376922,33308.97191869878,-19678.408763218973,-13850.79489359795,-0.058,0.868,0.47400000000000003,192.0,0.0,0.0,0.0,0.0,0.0,0.0,0.0,0.0,0.0,1678557385.564054,0.0
446,190.0,78256.00543689793,58588.75019416216,4177.87631486372,-25051.23168840786,17914.520849528417,33251.259714515174,-19763.323040404684,-13970.779057834037,-0.058,0.868,0.47400000000000003,192.0,0.0,0.0,0.0,0.0,0.0,0.0,0.0,0.0,0.0,1678557385.564073,0.0
447,191.0,78489.98349785608,58724.64880045043,4172.243675260982,-25031.673912009468,17963.001783251977,33432.17473413643,-19585.53726500717,-13699.42888014661,-0.058,0.868,0.47400000000000003,192.0,0.0,0.0,0.0,0.0,0.0,0.0,0.0,0.0,0.0,1678557385.564093,0.0
448,192.0,79297.03793490386,58937.43740766495,4139.431314400592,-25055.679685554467,17967.60624260977,33512.88688336455,-19458.84757743449,-13526.314619340255,-0.058,0.868,0.47400000000000003,192.0,0.0,0.0,0.0,0.0,0.0,0.0,0.0,0.0,0.0,1678557385.56413,0.0
449,193.0,79142.85560165114,58821.655371386456,4131.697610819056,-25084.714601601914,17907.725919214,33347.79689881765,-19644.501166880273,-13792.63565452524,-0.058,0.868,0.47400000000000003,192.0,0.0,0.0,0.0,0.0,0.0,0.0,0.0,0.0,0.0,1678557385.56415,0.0
450,194.0,78345.92650484163,58604.55287749206,4166.119297280228,-25059.27831641177,17913.962055917033,33274.88550840443,-19769.670935829992,-13982.223150995154,-0.058,0.868,0.47400000000000003,192.0,0.0,0.0,0.0,0.0,0.0,0.0,0.0,0.0,0.0,1678557385.564169,0.0
451,195.0,78378.24712732401,58686.24850347621,4171.416660716136,-25032.746795743322,17955.40219013717,33423.815181710146,-19621.478870091305,-13754.39181976221,-0.058,0.876,0.47400000000000003,192.0,254.0,48.0,27.0,96.0,14.0,208.0,0.0,0.0,0.0,1678557385.623533,0.0
452,196.0,79193.1470266756,58915.48799460984,4134.91626202062,-25054.09271169814,17967.18155946512,33522.49813348033,-19461.70860072477,-13526.985171673916,-0.058,0.876,0.47400000000000003,192.0,0.0,0.0,0.0,0.0,0.0,0.0,0.0,0.0,0.0,1678557385.623573,0.0
453,197.0,79250.92628609257,58853.4395520019,4117.280735645382,-25089.184950492974,17921.02520716491,33386.89009986998,-19605.11739315002,-13735.973982331036,-0.058,0.876,0.47400000000000003,192.0,0.0,0.0,0.0,0.0,0.0,0.0,0.0,0.0,0.0,1678557385.623596,0.0
454,198.0,78453.01371252701,58617.248668342676,4148.170846482617,-25076.265642197806,17906.8765529247,33247.77284238015,-19775.638851599557,-13988.43693595373,-0.058,0.876,0.47400000000000003,192.0,0.0,0.0,0.0,0.0,0.0,0.0,0.0,0.0,0.0,1678557385.623617,0.0
455,199.0,78283.02869594439,58639.48865407571,4166.901608336164,-25039.96640920239,17941.320591130327,33373.38964621897,-19667.568167158148,-13824.30807641841,-0.058,0.876,0.47400000000000003,192.0,0.0,0.0,0.0,0.0,0.0,0.0,0.0,0.0,0.0,1678557385.623637,0.0
456,200.0,79062.34461812313,58883.14502038301,4146.293299948371,-25036.05485392271,17969.97552752203,33516.7090316664,-19470.76105722917,-13534.785930488817,-0.058,0.876,0.47400000000000003,192.0,0.0,0.0,0.0,0.0,0.0,0.0,0.0,0.0,0.0,1678557385.623657,0.0
457,201.0,79334.43240337759,58890.230523375336,4125.752046793944,-25071.21414795091,17929.87649796921,33404.927957645414,-19558.134026304964,-13669.254025131944,-0.058,0.876,0.47400000000000003,192.0,0.0,0.0,0.0,0.0,0.0,0.0,0.0,0.0,0.0,1678557385.623677,0.0
458,202.0,78579.77045533305,58641.67912503232,4144.3263464363035,-25075.28216544177,17892.59378821776,33243.660121400375,-19759.880871758567,-13965.973432776145,-0.058,0.876,0.47400000000000003,192.0,0.0,0.0,0.0,0.0,0.0,0.0,0.0,0.0,0.0,1678557385.623696,0.0
459,203.0,78215.32526198927,58603.45764201375,4163.526494923412,-25040.18992664694,17932.15637590365,33325.62396831798,-19704.716766442867,-13871.358498496831,-0.058,0.876,0.47400000000000003,192.0,0.0,0.0,0.0,0.0,0.0,0.0,0.0,0.0,0.0,1678557385.623716,0.0
460,204.0,78904.51895052422,58836.56398493815,4140.124218478706,-25042.24628713683,17958.822007038834,33509.042383318236,-19499.70656629879,-13566.078372726248,-0.058,0.876,0.47400000000000003,192.0,0.0,0.0,0.0,0.0,0.0,0.0,0.0,0.0,0.0,1678557385.623736,0.0
461,205.0,79375.42550270862,58911.84466026362,4115.492596088958,-25075.595089864146,17930.234125880495,33468.42926364294,-19531.088415514045,-13621.018960597392,-0.064,0.874,0.47400000000000003,192.0,254.0,0.0,27.0,80.0,14.0,208.0,0.0,0.0,0.0,1678557385.623756,0.0
462,206.0,78728.52131468312,58686.09204126502,4134.178654453594,-25080.803046322235,17898.405241776138,33283.222709086265,-19740.36779884908,-13932.199946904177,-0.064,0.874,0.47400000000000003,192.0,0.0,0.0,0.0,0.0,0.0,0.0,0.0,0.0,0.0,1678557385.623775,0.0
463,207.0,78198.6061571367,58589.9795401072,4161.671300133622,-25049.19767966243,17929.228297380007,33318.13613392546,-19731.740025489336,-13916.620781018828,-0.064,0.874,0.47400000000000003,192.0,0.0,0.0,0.0,0.0,0.0,0.0,0.0,0.0,0.0,1678557385.623795,0.0
464,208.0,78755.5445737296,58802.58933336608,4146.338003437281,-25036.993627189833,17973.238882212507,33487.13767375203,-19521.47716539826,-13604.992759822937,-0.064,0.874,0.47400000000000003,192.0,0.0,0.0,0.0,0.0,0.0,0.0,0.0,0.0,0.0,1678557385.623815,0.0
465,209.0,79384.07562781282,58929.77075931678,4104.9425727060525,-25076.10917998662,17939.77832076291,33456.06874895916,-19504.132211700944,-13580.539951388831,-0.064,0.874,0.47400000000000003,192.0,0.0,0.0,0.0,0.0,0.0,0.0,0.0,0.0,0.0,1678557385.623835,0.0
466,210.0,78880.37906651248,58728.78387317466,4115.358485622226,-25089.989613293365,17897.578227231294,33278.93117415085,-19718.351330560607,-13894.98429238609,-0.064,0.874,0.47400000000000003,192.0,0.0,0.0,0.0,0.0,0.0,0.0,0.0,0.0,0.0,1678557385.684806,0.0
467,211.0,78219.50503820242,58585.151563304855,4150.58483488379,-25054.71856054289,17921.762814731934,33270.39280776892,-19759.813816525202,-13958.217377450155,-0.064,0.874,0.47400000000000003,192.0,0.0,0.0,0.0,0.0,0.0,0.0,0.0,0.0,0.0,1678557385.684846,0.0
468,212.0,78611.44287722622,58764.323146858595,4147.1426662376725,-25032.925609698967,17971.160169978164,33470.26210668828,-19556.63645942646,-13655.664164503118,-0.064,0.874,0.47400000000000003,192.0,0.0,0.0,0.0,0.0,0.0,0.0,0.0,0.0,0.0,1678557385.684868,0.0
469,213.0,79365.4342729371,58947.11571301409,4115.403189111136,-25059.8147582787,17951.31182090185,33514.406801987505,-19476.61721427646,-13543.905442226584,-0.064,0.874,0.47400000000000003,192.0,0.0,0.0,0.0,0.0,0.0,0.0,0.0,0.0,0.0,1678557385.684889,0.0
