sample,packet,eeg1,eeg2,eeg3,eeg4,eeg5,eeg6,eeg7,eeg8,accel1,accel2,accel3,other1,other2,other3,other4,other5,other6,other7,analog1,analog2,analog3,timestamp,marker
0,0.0,0.0,0.0,0.0,0.0,0.0,0.0,0.0,0.0,0.008,0.9580000000000001,0.078,192.0,0.0,64.0,29.0,240.0,2.0,112.0,0.0,0.0,0.0,1675725317.831076,0.0
1,1.0,51105.07322610298,61687.43958323474,-29279.37707655157,-19656.168777485942,-15031.749311894097,-10583.550999587895,-25588.187645457703,-15801.230466512498,0.008,0.9580000000000001,0.078,192.0,0.0,0.0,0.0,0.0,0.0,0.0,0.0,0.0,0.0,1675725317.890927,0.0
2,2.0,51150.46961909171,61760.306270159046,-28554.17472769913,-19664.103646767577,-14946.700924241653,-10429.927459946568,-25219.965007300976,-15635.469929631941,0.008,0.9580000000000001,0.078,192.0,0.0,0.0,0.0,0.0,0.0,0.0,0.0,0.0,0.0,1675725317.89094,0.0
3,3.0,51135.13632239537,61794.817363598035,-25127.74170967838,-19717.859592182587,-14993.483125386612,-10432.766131492393,-25135.028378370807,-15631.37956039662,0.008,0.9580000000000001,0.078,192.0,0.0,0.0,0.0,0.0,0.0,0.0,0.0,0.0,0.0,1675725317.890948,0.0
4,4.0,51076.48534494464,61702.59406597544,-25599.49762815209,-19705.56613273217,-15089.260350377603,-10614.105834258298,-25533.71644422012,-15819.916524877135,0.008,0.9580000000000001,0.078,192.0,0.0,0.0,0.0,0.0,0.0,0.0,0.0,0.0,0.0,1675725317.890956,0.0
5,5.0,51094.81377539799,61672.687431894235,-29033.32907358755,-19646.065788992142,-15045.182710311738,-10604.80750856489,-25636.6015239479,-15825.795033668881,0.008,0.9580000000000001,0.078,192.0,0.0,0.0,0.0,0.0,0.0,0.0,0.0,0.0,0.0,1675725317.890965,0.0
6,6.0,51157.73393603968,61752.28199389959,-29157.403607058957,-19637.706236565857,-14942.699961984154,-10452.748591035437,-25289.836560468266,-15659.878034577136,0.008,0.9580000000000001,0.078,192.0,0.0,0.0,0.0,0.0,0.0,0.0,0.0,0.0,0.0,1675725317.890973,0.0
7,7.0,51156.61634881692,61804.09333754699,-25735.217420484714,-19697.206580305887,-14960.111970914839,-10417.231669095954,-25107.848657113154,-15608.692539774484,0.018000000000000002,0.974,0.08,192.0,0.0,144.0,30.0,112.0,2.0,128.0,0.0,0.0,0.0,1675725317.890981,0.0
8,8.0,51090.231667784654,61719.55904001702,-25239.679245910556,-19715.579714248146,-15082.17484738527,-10585.294435655409,-25479.357001704815,-15793.452059442052,0.018000000000000002,0.974,0.08,192.0,0.0,0.0,0.0,0.0,0.0,0.0,0.0,0.0,0.0,1675725317.890989,0.0
9,9.0,51092.06451082999,61667.30066148051,-28673.309525645916,-19652.011353017253,-15065.589852999432,-10618.442072682628,-25682.310841359,-15842.312972821353,0.018000000000000002,0.974,0.08,192.0,0.0,0.0,0.0,0.0,0.0,0.0,0.0,0.0,0.0,1675725317.890998,0.0
10,10.0,51136.05274391804,61721.74951097364,-29647.599714708296,-19643.875318035523,-14961.76600000453,-10486.522076907406,-25375.287279520904,-15692.86920939317,0.018000000000000002,0.974,0.08,192.0,0.0,0.0,0.0,0.0,0.0,0.0,0.0,0.0,0.0,1675725317.891006,0.0
11,11.0,51162.65131981985,61797.72309037723,-26455.457682068074,-19688.064716823665,-14928.350142043846,-10398.947942131514,-25092.44830518345,-15582.27277782831,0.018000000000000002,0.974,0.08,192.0,0.0,0.0,0.0,0.0,0.0,0.0,0.0,0.0,0.0,1675725317.891014,0.0
12,12.0,51111.89050816185,61738.826243737494,-25063.480444369372,-19714.1044991141,-15021.512212933567,-10547.788208459402,-25375.309631265358,-15737.505643070417,0.018000000000000002,0.974,0.08,192.0,0.0,0.0,0.0,0.0,0.0,0.0,0.0,0.0,0.0,1675725317.891022,0.0
13,13.0,51089.42700498427,61655.87892006385,-28246.92764841648,-19669.669231136948,-15043.59573645541,-10628.656819898704,-25672.02903890956,-15845.062237389355,0.018000000000000002,0.974,0.08,192.0,0.0,0.0,0.0,0.0,0.0,0.0,0.0,0.0,0.0,1675725317.89103,0.0
14,14.0,51139.65137477534,61701.32001654149,-29987.65915485134,-19646.758693070256,-14954.926366201207,-10510.058463818845,-25440.442614608124,-15716.718520726983,0.018000000000000002,0.974,0.08,192.0,0.0,0.0,0.0,0.0,0.0,0.0,0.0,0.0,0.0,1675725317.891038,0.0
15,15.0,51169.513305367625,61781.98746228069,-27164.991458057342,-19689.897559869,-14920.705845440132,-10402.881849155647,-25106.440497212472,-15586.050222641257,0.018000000000000002,0.974,0.08,192.0,0.0,0.0,0.0,0.0,0.0,0.0,0.0,0.0,0.0,1675725317.891046,0.0
16,16.0,51116.65142973083,61740.569679805005,-24897.07170689961,-19733.081130156654,-15022.518041434056,-10532.03022861841,-25308.969653722008,-15714.72921547046,0.018000000000000002,0.974,0.08,192.0,0.0,0.0,0.0,0.0,0.0,0.0,0.0,0.0,0.0,1675725317.949827,0.0
17,17.0,51073.42315595426,61645.17243446976,-27633.193449162656,-19689.964615102366,-15068.473228034167,-10654.182512066665,-25682.400248336824,-15863.033039931423,0.022,0.972,0.07,192.0,0.0,176.0,30.0,96.0,2.0,48.0,0.0,0.0,0.0,1675725317.949841,0.0
18,18.0,51120.89826117734,61681.44931572072,-30115.801705813614,-19642.13188196801,-14982.307253158959,-10551.18567361661,-25518.986644624074,-15752.235442666466,0.022,0.972,0.07,192.0,0.0,0.0,0.0,0.0,0.0,0.0,0.0,0.0,0.0,1675725317.949848,0.0
19,19.0,51160.639662818874,61771.2809766866,-27914.400746154875,-19674.36309747256,-14914.693226181655,-10411.196698093021,-25126.93704687799,-15589.715908731927,0.022,0.972,0.07,192.0,0.0,0.0,0.0,0.0,0.0,0.0,0.0,0.0,0.0,1675725317.949855,0.0
20,20.0,51121.52411002209,61761.73678180418,-24987.61862368806,-19726.219144608873,-15000.903904545774,-10491.864143832225,-25225.977626559452,-15668.52815968134,0.022,0.972,0.07,192.0,0.0,0.0,0.0,0.0,0.0,0.0,0.0,0.0,0.0,1675725317.949861,0.0
21,21.0,51078.18407752324,61659.611661387884,-27019.883933053487,-19697.206580305887,-15068.964966412184,-10645.53238696246,-25631.572381445454,-15843.475263533028,0.022,0.972,0.07,192.0,0.0,0.0,0.0,0.0,0.0,0.0,0.0,0.0,0.0,1675725317.949868,0.0
22,22.0,51115.73500820816,61664.26082423459,-30020.56092268955,-19654.402989673974,-14994.86893354284,-10575.52672332844,-25568.987496970596,-15780.130419746689,0.022,0.972,0.07,192.0,0.0,0.0,0.0,0.0,0.0,0.0,0.0,0.0,0.0,1675725317.949881,0.0
23,23.0,51162.114877952925,61749.15274967584,-28560.835547546812,-19685.069583066652,-14906.534839455468,-10429.905108202114,-25179.55305332578,-15616.627409056116,0.022,0.972,0.07,192.0,0.0,0.0,0.0,0.0,0.0,0.0,0.0,0.0,0.0,1675725317.949888,0.0
24,24.0,51151.140171425366,61779.97580527971,-25171.79699799979,-19723.201659107406,-14955.57456679041,-10462.382192895675,-25160.26349786085,-15636.520461621341,0.022,0.972,0.07,192.0,0.0,0.0,0.0,0.0,0.0,0.0,0.0,0.0,0.0,1675725317.949894,0.0
25,25.0,51095.59608645393,61679.325899997464,-26350.9185732506,-19699.352347773594,-15055.039829616528,-10636.658744413704,-25578.6881540642,-15829.639533715193,0.022,0.972,0.07,192.0,0.0,0.0,0.0,0.0,0.0,0.0,0.0,0.0,0.0,1675725317.949901,0.0
26,26.0,51118.26075533161,61656.79534158651,-29726.79194531345,-19647.205727959365,-15006.670654615244,-10605.723930087559,-25616.574360915944,-15809.522963705418,0.022,0.972,0.07,192.0,0.0,0.0,0.0,0.0,0.0,0.0,0.0,0.0,0.0,1675725317.949907,0.0
27,27.0,51165.55704659904,61733.797101235046,-29130.15683056794,-19666.092952024097,-14916.682531438177,-10451.474541601485,-25237.779347631855,-15643.807130313771,0.028,0.98,0.074,192.0,0.0,224.0,30.0,160.0,2.0,80.0,0.0,0.0,0.0,1675725317.949914,0.0
28,28.0,51160.41614537432,61785.36257569344,-25489.929376832173,-19716.294970070718,-14931.457034523135,-10434.710733260004,-25103.892398344567,-15613.788737510293,0.028,0.98,0.074,192.0,0.0,0.0,0.0,0.0,0.0,0.0,0.0,0.0,0.0,1675725317.94992,0.0
29,29.0,51111.35406629492,61696.045004850035,-25716.888990031362,-19710.505868256794,-15025.110843790872,-10602.505278885994,-25499.898254859243,-15808.047748571367,0.028,0.98,0.074,192.0,0.0,0.0,0.0,0.0,0.0,0.0,0.0,0.0,0.0,1675725317.949927,0.0
30,30.0,51114.03627562956,61647.742885082116,-29258.299381530214,-19653.79949257368,-15001.663863857255,-10612.027122023956,-25640.714244927676,-15831.60648722726,0.028,0.98,0.074,192.0,0.0,0.0,0.0,0.0,0.0,0.0,0.0,0.0,0.0,1675725317.949934,0.0
31,31.0,51156.236369161175,61709.92543815678,-29495.630204156663,-19660.683829865913,-14911.295761024448,-10469.668861588105,-25296.96676694951,-15673.490246950418,0.028,0.98,0.074,192.0,0.0,0.0,0.0,0.0,0.0,0.0,0.0,0.0,0.0,1675725318.010192,0.0
32,32.0,51157.353956383944,61769.13520921889,-25923.530867520676,-19718.99953114981,-14920.884659395775,-10420.87500344217,-25081.317136444704,-15605.22801938391,0.028,0.98,0.074,192.0,0.0,0.0,0.0,0.0,0.0,0.0,0.0,0.0,0.0,1675725318.010206,0.0
33,33.0,51100.33465627845,61694.30156878252,-25213.728870597944,-19728.163746376486,-15025.759044380075,-10580.734679786525,-25425.84692547881,-15776.129457489189,0.028,0.98,0.074,192.0,0.0,0.0,0.0,0.0,0.0,0.0,0.0,0.0,0.0,1675725318.010214,0.0
34,34.0,51087.41534798329,61626.03934121601,-28710.01109004153,-19677.402934718484,-15025.02143681305,-10623.426511696161,-25657.053370124504,-15841.0389233874,0.028,0.98,0.074,192.0,0.0,0.0,0.0,0.0,0.0,0.0,0.0,0.0,0.0,1675725318.010222,0.0
35,35.0,51144.45699983323,61687.01490009009,-29833.253304154077,-19657.152254241973,-14922.896316396753,-10479.660091359627,-25356.511814178448,-15688.421212246563,0.028,0.98,0.074,192.0,0.0,0.0,0.0,0.0,0.0,0.0,0.0,0.0,0.0,1675725318.010229,0.0
36,36.0,51171.36850015742,61768.73287781869,-26520.92594157767,-19711.489345012826,-14904.254961521026,-10391.013072849879,-25055.858499510112,-15580.819914438716,0.028,0.98,0.074,192.0,0.0,0.0,0.0,0.0,0.0,0.0,0.0,0.0,0.0,1675725318.010236,0.0
37,37.0,51113.18690934026,61717.88265918287,-24854.804558134623,-19740.032522682253,-15013.845564585396,-10543.586080501806,-25335.30000869036,-15739.360837860208,0.034,0.98,0.084,192.0,1.0,16.0,30.0,160.0,2.0,160.0,0.0,0.0,0.0,1675725318.010243,0.0
38,38.0,51090.43283348475,61637.70695182168,-28033.334378401563,-19689.025841835242,-15044.556861466988,-10635.563508935395,-25656.002838135104,-15856.819254972846,0.034,0.98,0.084,192.0,0.0,0.0,0.0,0.0,0.0,0.0,0.0,0.0,0.0,1675725318.010256,0.0
39,39.0,51142.199473643246,61686.14318205633,-29965.50857609613,-19660.61677463255,-14947.885566697785,-10511.734844652992,-25427.679768524144,-15726.150956887122,0.034,0.98,0.084,192.0,0.0,0.0,0.0,0.0,0.0,0.0,0.0,0.0,0.0,1675725318.010263,0.0
40,40.0,51172.93312226929,61779.79699132407,-27198.85435090713,-19706.41549902147,-14904.567885943401,-10397.696244442015,-25078.63492711007,-15589.023004653813,0.034,0.98,0.084,192.0,0.0,0.0,0.0,0.0,0.0,0.0,0.0,0.0,0.0,1675725318.01027,0.0
41,41.0,51128.25198510313,61755.947679990255,-24785.67061253436,-19744.90520297351,-14993.930160275719,-10519.446196490073,-25268.33418230226,-15710.594142746228,0.034,0.98,0.084,192.0,0.0,0.0,0.0,0.0,0.0,0.0,0.0,0.0,0.0,1675725318.010278,0.0
42,42.0,51091.013978840594,61660.48337942164,-27480.307517088357,-19696.267807038763,-15055.375105783358,-10638.245718270031,-25641.74242517262,-15855.679316005626,0.034,0.98,0.084,192.0,0.0,0.0,0.0,0.0,0.0,0.0,0.0,0.0,0.0,1675725318.010285,0.0
43,43.0,51126.106217635424,61678.700051152715,-30106.548083609116,-19662.203748488875,-14985.905884016263,-10541.75323745647,-25505.396783995246,-15761.489064870962,0.034,0.98,0.084,192.0,0.0,0.0,0.0,0.0,0.0,0.0,0.0,0.0,0.0,1675725318.010299,0.0
44,44.0,51171.9272937688,61776.48893314468,-27977.38796202993,-19699.821734407156,-14915.564944215412,-10400.1549363321,-25119.046881085265,-15598.56719953623,0.034,0.98,0.084,192.0,0.0,0.0,0.0,0.0,0.0,0.0,0.0,0.0,0.0,1675725318.010306,0.0
45,45.0,51147.69800277925,61783.99911928167,-24920.49633508877,-19743.117063417085,-14995.807706809963,-10479.21305647052,-25197.926187268044,-15669.601043415196,0.034,0.98,0.084,192.0,0.0,0.0,0.0,0.0,0.0,0.0,0.0,0.0,0.0,1675725318.010313,0.0
46,46.0,51080.62041766887,61665.51252192409,-26898.066925772066,-19720.586505006137,-15093.171905657282,-10645.599442195826,-25631.50532621209,-15864.821179487846,0.034,0.98,0.084,192.0,0.0,0.0,0.0,0.0,0.0,0.0,0.0,0.0,0.0,1675725318.070978,0.0
47,47.0,51114.50566226312,61662.67385037826,-30075.345048349507,-19673.267861994253,-15026.384893224824,-10580.309996641874,-25584.119627966837,-15807.064271815334,0.05,0.96,0.074,192.0,1.0,144.0,30.0,0.0,2.0,80.0,0.0,0.0,0.0,1675725318.070998,0.0
48,48.0,51168.73099431169,61767.32471791801,-28757.173270842228,-19683.929644099433,-14927.076092609894,-10430.508605302406,-25182.16820742705,-15631.111339463156,0.05,0.96,0.074,192.0,0.0,0.0,0.0,0.0,0.0,0.0,0.0,0.0,0.0,1675725318.071009,0.0
49,49.0,51145.3734213559,61797.79014561059,-25275.24087133895,-19728.566077776683,-14965.744610517575,-10455.967242237002,-25139.07404411722,-15641.214327956955,0.05,0.96,0.074,192.0,0.0,0.0,0.0,0.0,0.0,0.0,0.0,0.0,0.0,1675725318.07102,0.0
50,50.0,51083.21322002569,61686.56786520098,-26366.11775948021,-19711.712862457378,-15061.275966319557,-10644.213634039597,-25570.10508419336,-15845.844548445291,0.05,0.96,0.074,192.0,0.0,0.0,0.0,0.0,0.0,0.0,0.0,0.0,0.0,1675725318.07103,0.0
51,51.0,51107.710731948704,61668.082972536446,-29896.039354329034,-19649.642068104993,-15009.196401738693,-10614.441110425128,-25621.26822725156,-15825.146833079676,0.05,0.96,0.074,192.0,0.0,0.0,0.0,0.0,0.0,0.0,0.0,0.0,0.0,1675725318.071041,0.0
52,52.0,51163.79125878707,61754.494816600665,-29443.21536340897,-19657.264012964253,-14916.347255271347,-10453.776771280382,-25238.606362176703,-15647.85279606018,0.05,0.96,0.074,192.0,0.0,0.0,0.0,0.0,0.0,0.0,0.0,0.0,0.0,1675725318.071051,0.0
53,53.0,51158.24802616215,61799.62298865593,-25789.040421133093,-19717.792536949222,-14947.215014364127,-10438.44347458404,-25105.054689056244,-15619.577839324218,0.05,0.96,0.074,192.0,0.0,0.0,0.0,0.0,0.0,0.0,0.0,0.0,0.0,1675725318.071061,0.0
54,54.0,51098.47946148866,61705.07510960998,-25913.629044726975,-19706.46020251038,-15050.614184214377,-10616.564526148382,-25503.139257805262,-15811.825193384313,0.05,0.96,0.074,192.0,0.0,0.0,0.0,0.0,0.0,0.0,0.0,0.0,0.0,1675725318.071072,0.0
55,55.0,51098.74768242213,61654.82838807445,-29595.85542629426,-19645.66345759195,-15027.748349636597,-10628.075674542866,-25661.36725680438,-15839.474301275528,0.05,0.96,0.074,192.0,0.0,0.0,0.0,0.0,0.0,0.0,0.0,0.0,0.0,1675725318.071082,0.0
56,56.0,51142.959432954725,61717.301513827035,-30074.18275763783,-19646.199899458876,-14934.452168280146,-10482.051728016344,-25323.81121204033,-15681.000433087402,0.05,0.96,0.074,192.0,0.0,0.0,0.0,0.0,0.0,0.0,0.0,0.0,0.0,1675725318.071093,0.0
57,57.0,51159.075040707,61787.46363967224,-26511.314691461885,-19690.36694650256,-14937.514357270522,-10422.327866831763,-25091.084848771676,-15604.289246116788,0.044,0.98,0.07,192.0,1.0,96.0,30.0,160.0,2.0,48.0,0.0,0.0,0.0,1675725318.071103,0.0
58,58.0,51112.22578432868,61726.19750812025,-25645.40811126329,-19693.384432004026,-15024.082663545927,-10588.848363023802,-25428.26091387998,-15779.638681368671,0.044,0.98,0.07,192.0,0.0,0.0,0.0,0.0,0.0,0.0,0.0,0.0,0.0,1675725318.071113,0.0
59,59.0,51109.744740694136,61662.271518978065,-29200.788343046708,-19634.040550475187,-15019.947590821695,-10639.922099104178,-25672.297259843024,-15852.974754926534,0.044,0.98,0.07,192.0,0.0,0.0,0.0,0.0,0.0,0.0,0.0,0.0,0.0,1675725318.071124,0.0
60,60.0,51152.70479353724,61717.1674033603,-30563.127167597675,-19613.40989034294,-14928.305438554937,-10502.615332915228,-25390.955852384075,-15706.861401422191,0.044,0.98,0.07,192.0,0.0,0.0,0.0,0.0,0.0,0.0,0.0,0.0,0.0,1675725318.071134,0.0
61,61.0,51173.11193622493,61797.36546246594,-27359.51869005188,-19672.08321953812,-14914.179136059181,-10408.402730036109,-25090.257834226828,-15591.36993782162,0.044,0.98,0.07,192.0,0.0,0.0,0.0,0.0,0.0,0.0,0.0,0.0,0.0,1675725318.129232,0.0
62,62.0,51116.00322914162,61739.385037348875,-25588.277052435526,-19705.141449587518,-15020.148756521792,-10555.745429485492,-25360.02103805793,-15742.579489061773,0.044,0.98,0.07,192.0,0.0,0.0,0.0,0.0,0.0,0.0,0.0,0.0,0.0,1675725318.129253,0.0
63,63.0,51090.27637127357,61649.01693451607,-28774.339410583903,-19651.072579750133,-15043.238108544125,-10646.292346273942,-25688.6140332954,-15862.094266664299,0.044,0.98,0.07,192.0,0.0,0.0,0.0,0.0,0.0,0.0,0.0,0.0,0.0,1675725318.129266,0.0
64,64.0,51146.78158125658,61691.39584200333,-30934.41199474478,-19616.65089328896,-14941.157691616738,-10520.94376336858,-25471.288021956447,-15736.96920120349,0.044,0.98,0.07,192.0,0.0,0.0,0.0,0.0,0.0,0.0,0.0,0.0,0.0,1675725318.129294,0.0
65,65.0,51187.79703233207,61780.86987505793,-28267.82652948219,-19657.152254241973,-14888.966368313595,-10402.479517755452,-25102.64070065507,-15584.016213895824,0.044,0.98,0.07,192.0,0.0,0.0,0.0,0.0,0.0,0.0,0.0,0.0,0.0,1675725318.129305,0.0
66,66.0,51141.484217820675,61751.477331099195,-25682.243786125637,-19700.536990229724,-14985.972939249628,-10515.959324355046,-25271.217557336993,-15693.316244282276,0.044,0.98,0.07,192.0,0.0,0.0,0.0,0.0,0.0,0.0,0.0,0.0,0.0,1675725318.129316,0.0
67,67.0,51095.39492075383,61650.112169994376,-28248.671084483994,-19655.74409434129,-15041.248803287603,-10649.846273642335,-25665.79290220653,-15855.746371238993,0.044,0.996,0.064,192.0,1.0,96.0,31.0,32.0,2.0,0.0,0.0,0.0,0.0,1675725318.129327,0.0
68,68.0,51139.0702294195,61671.52514118257,-31040.962760563227,-19609.40892808544,-14961.96716570463,-10556.930071941624,-25546.747511237565,-15768.84278879676,0.044,0.996,0.064,192.0,0.0,0.0,0.0,0.0,0.0,0.0,0.0,0.0,0.0,1675725318.129337,0.0
69,69.0,51187.37234918742,61762.541444604576,-29151.078063378107,-19645.059960491653,-14896.498906195035,-10417.902221429613,-25163.348038595683,-15609.60896129715,0.044,0.996,0.064,192.0,0.0,0.0,0.0,0.0,0.0,0.0,0.0,0.0,0.0,1675725318.129347,0.0
70,70.0,51164.23829367618,61773.22557845421,-26056.81431970767,-19693.09385932611,-14959.687287770188,-10478.74366983696,-25212.700690353002,-15660.347421210698,0.044,0.996,0.064,192.0,0.0,0.0,0.0,0.0,0.0,0.0,0.0,0.0,0.0,1675725318.129358,0.0
71,71.0,51111.130548850364,61670.56401617098,-27800.898587810825,-19669.28925148121,-15028.217736270159,-10635.697619402126,-25619.994177817607,-15837.887327419201,0.044,0.996,0.064,192.0,0.0,0.0,0.0,0.0,0.0,0.0,0.0,0.0,0.0,1675725318.129368,0.0
72,72.0,51140.61249978692,61667.85945509189,-30986.312745370004,-19619.198992156864,-14974.372383877324,-10573.917397727657,-25594.624947860833,-15783.416126181619,0.044,0.996,0.064,192.0,0.0,0.0,0.0,0.0,0.0,0.0,0.0,0.0,0.0,1675725318.129379,0.0
73,73.0,51193.22850623471,61757.422895124306,-29927.175334355277,-19638.488547621793,-14886.306510723414,-10426.217070366987,-25211.538399641326,-15614.302827632766,0.044,0.996,0.064,192.0,0.0,0.0,0.0,0.0,0.0,0.0,0.0,0.0,0.0,1675725318.129389,0.0
74,74.0,51185.96418928674,61794.258569986654,-26553.11245359331,-19685.65072842249,-14930.160633344727,-10443.696134531037,-25156.06136990325,-15617.007388711858,0.044,0.996,0.064,192.0,0.0,0.0,0.0,0.0,0.0,0.0,0.0,0.0,0.0,1675725318.1294,0.0
75,75.0,51131.560043282516,61703.21991482019,-27423.779955360886,-19672.642013149503,-15029.380026981835,-10617.570354648871,-25565.97001146913,-15804.359710736242,0.044,0.996,0.064,192.0,0.0,0.0,0.0,0.0,0.0,0.0,0.0,0.0,0.0,1675725318.12941,0.0
76,76.0,51148.30149987954,61677.33659474094,-30867.02148521203,-19627.60324807206,-14988.96807300664,-10599.510145128983,-25638.32260827096,-15796.626007154706,0.038,1.004,0.056,192.0,1.0,48.0,31.0,96.0,1.0,192.0,0.0,0.0,0.0,1675725318.189563,0.0
77,77.0,51209.433520964805,61768.93404351879,-30673.34361950679,-19622.64116080298,-14892.52029568199,-10448.099428188734,-25269.58587999176,-15628.026798728324,0.038,1.004,0.056,192.0,0.0,0.0,0.0,0.0,0.0,0.0,0.0,0.0,0.0,1675725318.189583,0.0
78,78.0,51204.49378544019,61825.930991879824,-27209.516133012312,-19671.52442592674,-14923.164537330216,-10427.91580294559,-25120.812668897233,-15592.46517329993,0.038,1.004,0.056,192.0,0.0,0.0,0.0,0.0,0.0,0.0,0.0,0.0,0.0,1675725318.189594,0.0
79,79.0,51140.41133408682,61744.88356648488,-27117.337538878626,-19680.8451033646,-15028.038922314516,-10600.67243584066,-25497.70778390262,-15778.118762745711,0.038,1.004,0.056,192.0,0.0,0.0,0.0,0.0,0.0,0.0,0.0,0.0,0.0,1675725318.189605,0.0
80,80.0,51140.63485153137,61701.297664797035,-30616.43607812358,-19622.194125913873,-15011.878611073329,-10623.20299425161,-25668.810387707996,-15814.440347485584,0.038,1.004,0.056,192.0,0.0,0.0,0.0,0.0,0.0,0.0,0.0,0.0,0.0,1675725318.189616,0.0
81,81.0,51191.59682888947,61765.42481963931,-31286.988411782793,-19623.870506748022,-14921.398749518246,-10486.142097251666,-25359.372837468727,-15670.025726559847,0.038,1.004,0.056,192.0,0.0,0.0,0.0,0.0,0.0,0.0,0.0,0.0,0.0,1675725318.189626,1.0
82,82.0,51199.53169817111,61831.20600357128,-27989.234386591244,-19682.47678070984,-14929.423025777702,-10419.802119708314,-25125.30536953275,-15590.252350598856,0.038,1.004,0.056,192.0,0.0,0.0,0.0,0.0,0.0,0.0,0.0,0.0,0.0,1675725318.189642,1.0
83,83.0,51147.34037486796,61769.023450496614,-26977.639136032958,-19702.593350719613,-15034.096245061904,-10576.24197915101,-25440.08498669684,-15754.269451411898,0.038,1.004,0.056,192.0,0.0,0.0,0.0,0.0,0.0,0.0,0.0,0.0,0.0,1675725318.189652,1.0
84,84.0,51141.148941653846,61700.49300199664,-30308.004356384798,-19647.384541915006,-15041.360562009879,-10639.318602003885,-25701.935672990763,-15835.652152973671,0.038,1.004,0.056,192.0,0.0,0.0,0.0,0.0,0.0,0.0,0.0,0.0,0.0,1675725318.189663,1.0
85,85.0,51184.824250319514,61749.398618864856,-31797.122275486265,-19622.283532891695,-14937.916688670719,-10513.36652199823,-25442.253105909003,-15699.328863540753,0.038,1.004,0.056,192.0,0.0,0.0,0.0,0.0,0.0,0.0,0.0,0.0,0.0,1675725318.189673,1.0
86,86.0,51203.778529617615,61832.167128582856,-28868.552013463024,-19670.7421148708,-14908.211220289615,-10419.064512141289,-25133.26259055884,-15583.502123773353,0.022,0.998,0.044,192.0,0.0,176.0,31.0,48.0,1.0,96.0,0.0,0.0,0.0,1675725318.189693,1.0
87,87.0,51168.77569780061,61803.46748870224,-27032.512668670737,-19691.819809892157,-15004.144907491793,-10546.245938091986,-25363.12793053722,-15710.124756112667,0.022,0.998,0.044,192.0,0.0,0.0,0.0,0.0,0.0,0.0,0.0,0.0,0.0,1675725318.189703,1.0
88,88.0,51137.6173660299,61717.100348126936,-30002.053678280558,-19638.84617553308,-15040.31003002048,-10647.879320130269,-25699.007594467115,-15831.51708024944,0.022,0.998,0.044,192.0,0.0,0.0,0.0,0.0,0.0,0.0,0.0,0.0,0.0,1675725318.189714,1.0
89,89.0,51178.968093272226,61747.54342407506,-32227.996853351222,-19611.442936830874,-14952.557081288944,-10540.434484533607,-25516.95263587864,-15723.289933596843,0.022,0.998,0.044,192.0,0.0,0.0,0.0,0.0,0.0,0.0,0.0,0.0,0.0,1675725318.189724,1.0
90,90.0,51218.865957124945,61836.95040189629,-29832.627455309328,-19655.140597240996,-14897.23651376206,-10414.616514994683,-25156.93308793701,-15577.914187659526,0.022,0.998,0.044,192.0,0.0,0.0,0.0,0.0,0.0,0.0,0.0,0.0,0.0,1675725318.189735,1.0
91,91.0,51187.484107909695,61820.9912563552,-27280.192348979992,-19693.250321537296,-14980.452058369168,-10511.734844652992,-25296.631490782678,-15670.808037615781,0.022,0.998,0.044,192.0,0.0,0.0,0.0,0.0,0.0,0.0,0.0,0.0,0.0,1675725318.249967,1.0
92,92.0,51151.65426154784,61725.3704935754,-29680.993220924523,-19652.816015817647,-15034.386817739824,-10641.48672121605,-25688.144646661836,-15825.124481335222,0.022,0.998,0.044,192.0,0.0,0.0,0.0,0.0,0.0,0.0,0.0,0.0,0.0,1675725318.249986,0.0
93,93.0,51179.83981130598,61730.62315352239,-32551.225429919417,-19613.78986999868,-14964.805837250453,-10571.078726181833,-25596.25662520607,-15757.041067724356,0.022,0.998,0.044,192.0,0.0,0.0,0.0,0.0,0.0,0.0,0.0,0.0,0.0,1675725318.249998,0.0
94,94.0,51227.4937304847,61824.09814883449,-30869.100197446372,-19640.164928455943,-14894.6660631497,-10434.174291393078,-25213.08067000874,-15598.94717919197,0.022,0.998,0.044,192.0,0.0,0.0,0.0,0.0,0.0,0.0,0.0,0.0,0.0,1675725318.250008,0.0
95,95.0,51200.202250504764,61838.2468030747,-27754.87634597735,-19694.837295393623,-14971.354898375857,-10491.774736854404,-25247.859984381197,-15648.053961760279,0.022,0.998,0.044,192.0,0.0,0.0,0.0,0.0,0.0,0.0,0.0,0.0,0.0,1675725318.250019,0.0
96,96.0,51144.568758555506,61737.50749081463,-29390.442894749987,-19665.444751434894,-15056.380934283845,-10657.15529407922,-25669.70445748621,-15832.835833172303,0.01,0.994,0.036000000000000004,192.0,0.0,80.0,31.0,16.0,1.0,32.0,0.0,0.0,0.0,1675725318.250029,0.0
97,97.0,51175.525924626105,61731.11489190041,-32791.10435141377,-19602.345776837563,-14985.190628193694,-10600.873601540758,-25664.809425450498,-15789.384041951185,0.01,0.994,0.036000000000000004,192.0,0.0,0.0,0.0,0.0,0.0,0.0,0.0,0.0,0.0,1675725318.25004,0.0
98,98.0,51232.008782864665,61820.76773891065,-31931.210390473654,-19607.39727108446,-14886.127696767771,-10433.25786987041,-25254.744321673432,-15597.963702435936,0.01,0.994,0.036000000000000004,192.0,0.0,0.0,0.0,0.0,0.0,0.0,0.0,0.0,0.0,1675725318.25005,0.0
99,99.0,51229.75125667468,61865.80650398809,-28441.72310134448,-19660.125036254532,-14927.321961798903,-10441.058628685312,-25172.51225382236,-15590.498219787863,0.01,0.994,0.036000000000000004,192.0,0.0,0.0,0.0,0.0,0.0,0.0,0.0,0.0,0.0,1675725318.25006,0.0
100,100.0,51169.42389838981,61765.98361325069,-29206.10805822707,-19661.443789177392,-15036.420826485257,-10628.34389547633,-25601.48693340861,-15797.69889088856,0.01,0.994,0.036000000000000004,192.0,0.0,0.0,0.0,0.0,0.0,0.0,0.0,0.0,0.0,1675725318.250071,0.0
101,101.0,51194.56961090203,61739.29563037105,-32877.31502977789,-19594.947349422855,-14987.738727061598,-10614.754034847503,-25697.778248522074,-15795.240198998476,0.01,0.994,0.036000000000000004,192.0,0.0,0.0,0.0,0.0,0.0,0.0,0.0,0.0,0.0,1675725318.250081,0.0
102,102.0,51252.68414648583,61825.3945500129,-32921.97381519959,-19586.54309350766,-14885.680661878665,-10457.26364341541,-25319.54202884937,-15617.432071856509,0.01,0.994,0.036000000000000004,192.0,0.0,0.0,0.0,0.0,0.0,0.0,0.0,0.0,0.0,1675725318.250092,0.0
103,103.0,51255.41105930937,61888.784097288146,-29331.09901322115,-19646.579879114615,-14913.687397681166,-10420.53972727534,-25138.35878829465,-15564.950175875447,0.01,0.994,0.036000000000000004,192.0,0.0,0.0,0.0,0.0,0.0,0.0,0.0,0.0,0.0,1675725318.250102,0.0
104,104.0,51193.04969227907,61804.42861371382,-29067.37078039298,-19655.36411468555,-15028.128329292338,-10597.319674172364,-25527.14503135026,-15756.59403283525,0.01,0.994,0.036000000000000004,192.0,0.0,0.0,0.0,0.0,0.0,0.0,0.0,0.0,0.0,1675725318.250113,0.0
105,105.0,51182.94670378527,61740.860252482926,-32751.474708494512,-19601.943445437366,-15020.282866988526,-10632.121340289277,-25738.324312964003,-15811.959303851047,0.01,0.994,0.036000000000000004,192.0,0.0,0.0,0.0,0.0,0.0,0.0,0.0,0.0,0.0,1675725318.250123,0.0
106,106.0,51237.86493991196,61805.456793958765,-33664.007027626874,-19593.963872666824,-14931.05470312294,-10489.718376364515,-25417.21915211906,-15657.776970598337,-0.012,0.99,0.024,192.0,255.0,160.0,30.0,240.0,0.0,192.0,0.0,0.0,0.0,1675725318.310162,0.0
107,107.0,51258.0485651551,61885.02900421966,-30260.775120350736,-19648.12214948203,-14933.356932801837,-10415.041198139334,-25150.49578553388,-15566.35833577613,-0.012,0.99,0.024,192.0,0.0,0.0,0.0,0.0,0.0,0.0,0.0,0.0,0.0,1675725318.31019,0.0
108,108.0,51203.219736006235,61827.85324190298,-29015.917064656864,-19655.542928641193,-15019.232334999126,-10567.882426724724,-25450.120919957273,-15721.926477185069,-0.012,0.99,0.024,192.0,0.0,0.0,0.0,0.0,0.0,0.0,0.0,0.0,0.0,1675725318.310202,0.0
109,109.0,51175.05653799255,61739.85442398243,-32439.310245431694,-19601.876390204,-15032.576326438944,-10645.286517773453,-25745.05218804505,-15818.955399865557,-0.012,0.99,0.024,192.0,0.0,0.0,0.0,0.0,0.0,0.0,0.0,0.0,0.0,1675725318.310212,0.0
110,110.0,51231.584099720014,61788.581226895,-34189.36242930441,-19576.261291058217,-14940.308325327436,-10515.489937721484,-25494.936167590164,-15686.610720945684,-0.012,0.99,0.024,192.0,0.0,0.0,0.0,0.0,0.0,0.0,0.0,0.0,0.0,1675725318.310223,0.0
111,111.0,51265.04466116961,61881.58683557354,-31211.64068122395,-19618.46138458984,-14908.211220289615,-10402.188945077532,-25150.764006467343,-15550.488597212863,-0.012,0.99,0.024,192.0,0.0,0.0,0.0,0.0,0.0,0.0,0.0,0.0,0.0,1675725318.310233,0.0
112,112.0,51210.08172155401,61840.258460075675,-29064.88973675844,-19654.827672818625,-15016.617180897854,-10531.091455351288,-25374.97435509853,-15677.982947585935,-0.012,0.99,0.024,192.0,0.0,0.0,0.0,0.0,0.0,0.0,0.0,0.0,0.0,1675725318.310243,0.0
113,113.0,51174.050709492054,61746.04585719656,-31955.976123330132,-19608.26898911822,-15061.968870397672,-10641.129093304766,-25738.413719941822,-15812.071062573323,-0.012,0.99,0.024,192.0,0.0,0.0,0.0,0.0,0.0,0.0,0.0,0.0,0.0,1675725318.310263,0.0
114,114.0,51215.244974523186,61769.20226445225,-34336.16868688687,-19577.20006432534,-14986.978767750117,-10539.495711266483,-25570.44036036019,-15711.264695079888,-0.012,0.99,0.024,192.0,0.0,0.0,0.0,0.0,0.0,0.0,0.0,0.0,0.0,1675725318.310274,0.0
115,115.0,51256.75216397669,61861.33615509703,-31963.352199000383,-19614.102794421055,-14924.796214675453,-10414.77297720587,-25189.454876119482,-15564.681954941983,-0.012,0.99,0.024,192.0,0.0,0.0,0.0,0.0,0.0,0.0,0.0,0.0,0.0,1675725318.310284,0.0
116,116.0,51224.677410683325,61855.85997770548,-29170.05469442066,-19657.867510064545,-14998.176991722226,-10507.689178906581,-25305.39337460916,-15652.412551929065,-0.024,0.984,0.018000000000000002,192.0,255.0,64.0,30.0,192.0,0.0,144.0,0.0,0.0,0.0,1675725318.310294,0.0
117,117.0,51180.37625317291,61756.70763930174,-31319.57725519863,-19631.64891381847,-15060.22543433016,-10646.851139885324,-25707.925940504785,-15816.183783553099,-0.024,0.984,0.018000000000000002,192.0,0.0,0.0,0.0,0.0,0.0,0.0,0.0,0.0,0.0,1675725318.310305,0.0
118,118.0,51220.274117025634,61764.46369462773,-34122.26249244958,-19574.227282312786,-14974.417087366235,-10563.412077833662,-25614.87562833734,-15731.873003467681,-0.024,0.984,0.018000000000000002,192.0,0.0,0.0,0.0,0.0,0.0,0.0,0.0,0.0,0.0,1675725318.310315,0.0
119,119.0,51262.83183846853,61847.14279736791,-32453.503603160814,-19602.0775559041,-14900.857496363818,-10420.137395875145,-25220.009710789887,-15569.84520791116,-0.024,0.984,0.018000000000000002,192.0,0.0,0.0,0.0,0.0,0.0,0.0,0.0,0.0,0.0,1675725318.310326,0.0
120,120.0,51240.77066669115,61870.120390667966,-29202.800000047686,-19645.64110584749,-14963.755305261053,-10466.740783064459,-25229.732719627944,-15605.496240317374,-0.024,0.984,0.018000000000000002,192.0,0.0,0.0,0.0,0.0,0.0,0.0,0.0,0.0,0.0,1675725318.310336,0.0
121,121.0,51182.36555842943,61769.35872666344,-30570.413836290103,-19629.301980650664,-15051.485902248134,-10626.1087210308,-25650.437253765733,-15784.377251193197,-0.024,0.984,0.018000000000000002,192.0,0.0,0.0,0.0,0.0,0.0,0.0,0.0,0.0,0.0,1675725318.370396,0.0
122,122.0,51206.12546278542,61756.21590092372,-33717.785324786346,-19576.462456758316,-14991.404413152268,-10584.199200177098,-25658.953268403206,-15748.815625764802,-0.024,0.984,0.018000000000000002,192.0,0.0,0.0,0.0,0.0,0.0,0.0,0.0,0.0,0.0,1675725318.370415,0.0
123,123.0,51256.23807385422,61837.822119930046,-32804.22482540904,-19593.40507905544,-14911.586333702367,-10440.276317629376,-25272.960993404507,-15589.872370943114,-0.024,0.984,0.018000000000000002,192.0,0.0,0.0,0.0,0.0,0.0,0.0,0.0,0.0,0.0,1675725318.370426,0.0
124,124.0,51249.04081213961,61880.893931495426,-29269.02821886876,-19648.636239604504,-14957.049781924461,-10447.630041555172,-25187.59968132969,-15587.41367905303,-0.024,0.984,0.018000000000000002,192.0,0.0,0.0,0.0,0.0,0.0,0.0,0.0,0.0,0.0,1675725318.370437,0.0
125,125.0,51196.648323136375,61794.392680453384,-29758.777291628994,-19633.32529465262,-15049.563652224977,-10608.33908418883,-25592.88151179332,-15765.445323639551,-0.024,0.984,0.018000000000000002,192.0,0.0,0.0,0.0,0.0,0.0,0.0,0.0,0.0,0.0,1675725318.370447,0.0
126,126.0,51197.43063419231,61745.79998800755,-33130.00150084514,-19589.35941330903,-15025.043788557505,-10603.645217853214,-25708.216513182702,-15774.274262699399,-0.042,0.972,0.022,192.0,254.0,176.0,30.0,96.0,0.0,176.0,0.0,0.0,0.0,1675725318.370458,0.0
127,127.0,51249.42079179535,61815.11274756346,-33037.75585147808,-19600.334119836585,-14937.044970636962,-10464.349146407742,-25351.437968187092,-15621.56714458074,-0.042,0.972,0.022,192.0,0.0,0.0,0.0,0.0,0.0,0.0,0.0,0.0,0.0,1675725318.370468,0.0
128,128.0,51261.24486461221,61882.01151871819,-29484.767256351384,-19649.619716360536,-14944.644563751766,-10424.563041277295,-25166.656096775067,-15568.682917199483,-0.042,0.972,0.022,192.0,0.0,0.0,0.0,0.0,0.0,0.0,0.0,0.0,0.0,1675725318.370486,0.0
129,129.0,51203.89028833989,61802.95339857977,-29050.405806351402,-19655.833501319114,-15044.556861466988,-10586.836706022825,-25526.496830761058,-15742.244212894942,-0.042,0.972,0.022,192.0,0.0,0.0,0.0,0.0,0.0,0.0,0.0,0.0,0.0,1675725318.370497,0.0
130,130.0,51198.32470397052,61740.368514104906,-32402.675736269444,-19597.07076514611,-15030.698779904698,-10610.462499912084,-25722.74514707865,-15787.350033205752,-0.042,0.972,0.022,192.0,0.0,0.0,0.0,0.0,0.0,0.0,0.0,0.0,0.0,1675725318.370507,0.0
131,131.0,51248.50437027268,61800.65116890087,-33197.32495514452,-19584.1738085954,-14935.86032818083,-10477.827248314292,-25402.869332178754,-15637.10160697718,-0.042,0.972,0.022,192.0,0.0,0.0,0.0,0.0,0.0,0.0,0.0,0.0,0.0,1675725318.370517,0.0
132,132.0,51268.1515536489,61874.5013325812,-29830.79461226399,-19637.996809243778,-14931.05470312294,-10412.291933571332,-25131.720320191424,-15548.70045765644,-0.042,0.972,0.022,192.0,0.0,0.0,0.0,0.0,0.0,0.0,0.0,0.0,0.0,1675725318.370528,0.0
133,133.0,51208.248878508675,61806.2391050147,-28485.823093154802,-19651.877242550523,-15035.437349729224,-10556.170112630143,-25436.307541883893,-15699.552380985306,-0.042,0.972,0.022,192.0,0.0,0.0,0.0,0.0,0.0,0.0,0.0,0.0,0.0,1675725318.370538,0.0
134,134.0,51180.778584573105,61717.21210684921,-31640.145974176645,-19603.820991971614,-15060.381896541347,-10627.516880931484,-25734.993903040162,-15793.049728041857,-0.042,0.972,0.022,192.0,0.0,0.0,0.0,0.0,0.0,0.0,0.0,0.0,0.0,1675725318.370548,0.0
135,135.0,51228.030172351624,61753.53369158909,-33220.99545252269,-19588.93473016438,-14972.226616409615,-10514.260591776443,-25496.27727225748,-15674.607834173185,-0.042,0.972,0.022,192.0,0.0,0.0,0.0,0.0,0.0,0.0,0.0,0.0,0.0,1675725318.370559,0.0
136,136.0,51262.071879157054,61849.26621309116,-30283.126864806043,-19627.379730627505,-14931.345275800859,-10409.565020747785,-25144.326704064217,-15548.007553578325,-0.066,0.97,0.018000000000000002,192.0,253.0,240.0,30.0,80.0,0.0,144.0,0.0,0.0,0.0,1675725318.430658,0.0
137,137.0,51223.783340905116,61823.44994824529,-28122.830763200614,-19647.339838426095,-15021.311047233468,-10527.626934960716,-25350.096863519775,-15664.61660440166,-0.066,0.97,0.018000000000000002,192.0,0.0,0.0,0.0,0.0,0.0,0.0,0.0,0.0,0.0,1675725318.430679,0.0
138,138.0,51192.937933556794,61728.67855175478,-30817.154743332238,-19596.93665467938,-15053.542262738021,-10629.528537932461,-25709.13293470537,-15789.629911140193,-0.066,0.97,0.018000000000000002,192.0,0.0,0.0,0.0,0.0,0.0,0.0,0.0,0.0,0.0,1675725318.430691,0.0
139,139.0,51232.56757647605,61745.64352579636,-33067.908354748295,-19572.237977056262,-14962.727125016108,-10538.489882765994,-25544.557040280946,-15696.1549158281,-0.066,0.97,0.018000000000000002,192.0,0.0,0.0,0.0,0.0,0.0,0.0,0.0,0.0,0.0,1675725318.430704,0.0
140,140.0,51277.67339678686,61832.94943963879,-30730.541733567923,-19611.778212997702,-14900.09753705234,-10421.500852286918,-25162.7892449843,-15559.831626395182,-0.066,0.97,0.018000000000000002,192.0,0.0,0.0,0.0,0.0,0.0,0.0,0.0,0.0,0.0,1675725318.430716,0.0
141,141.0,51244.48105627073,61825.66277094636,-27907.00231874017,-19651.74313208379,-14979.781506035508,-10496.066271789823,-25269.80939743631,-15634.419397642541,-0.066,0.97,0.018000000000000002,192.0,0.0,0.0,0.0,0.0,0.0,0.0,0.0,0.0,0.0,1675725318.430729,0.0
142,142.0,51178.92338978331,61706.460917766206,-29956.277305636086,-19634.17466094192,-15059.554881996499,-10640.905575860212,-25696.593606065944,-15804.382062480696,-0.066,0.97,0.018000000000000002,192.0,0.0,0.0,0.0,0.0,0.0,0.0,0.0,0.0,0.0,1675725318.430741,0.0
143,143.0,51214.30620125606,61710.32776955698,-32769.26669708094,-19592.73452672178,-14986.419974138735,-10573.42565934964,-25627.616122676867,-15741.752474516927,-0.066,0.97,0.018000000000000002,192.0,0.0,0.0,0.0,0.0,0.0,0.0,0.0,0.0,0.0,1675725318.430753,0.0
144,144.0,51272.487792073225,61807.62491317093,-31178.001305818714,-19606.480849561794,-14900.5669236859,-10429.368666335185,-25219.272103222862,-15576.304862058743,-0.066,0.97,0.018000000000000002,192.0,0.0,0.0,0.0,0.0,0.0,0.0,0.0,0.0,0.0,1675725318.430765,0.0
145,145.0,51250.2478063402,61824.45577674577,-27894.15006567837,-19657.152254241973,-14957.318002857925,-10472.596940111749,-25213.550056642303,-15609.921885719525,-0.068,0.976,0.026000000000000002,192.0,253.0,224.0,30.0,128.0,0.0,208.0,0.0,0.0,0.0,1675725318.430777,0.0
146,146.0,51200.22460224922,61728.45503431023,-29175.217947389836,-19636.141614453987,-15035.906736362784,-10628.701523387614,-25637.31677977047,-15782.902036059146,-0.068,0.976,0.026000000000000002,192.0,0.0,0.0,0.0,0.0,0.0,0.0,0.0,0.0,0.0,1675725318.430789,0.0
147,147.0,51220.765855403646,61709.813679434505,-32375.585421989614,-19583.033869628176,-14979.379174635313,-10599.800717806902,-25657.679218969253,-15753.353029889231,-0.068,0.976,0.026000000000000002,192.0,0.0,0.0,0.0,0.0,0.0,0.0,0.0,0.0,0.0,1675725318.430801,0.0
148,148.0,51261.513085545674,61787.687157116794,-31576.95759260149,-19602.9269221934,-14892.60970265981,-10465.73495456397,-25265.920193901085,-15599.46126931444,-0.068,0.976,0.026000000000000002,192.0,0.0,0.0,0.0,0.0,0.0,0.0,0.0,0.0,0.0,1675725318.430812,0.0
149,149.0,51246.11273361597,61826.26626804665,-28050.99225652126,-19663.52250141174,-14937.782578203987,-10474.094506990255,-25164.35386709617,-15594.029795411801,-0.068,0.976,0.026000000000000002,192.0,0.0,0.0,0.0,0.0,0.0,0.0,0.0,0.0,0.0,1675725318.430824,0.0
150,150.0,51190.09926201097,61734.132377401875,-28415.86213300969,-19661.756713599767,-15040.086512575926,-10647.365230007796,-25580.498645365078,-15779.683384857582,-0.068,0.976,0.026000000000000002,192.0,0.0,0.0,0.0,0.0,0.0,0.0,0.0,0.0,0.0,1675725318.430845,0.0
151,151.0,51206.639552907895,61706.48326951066,-31797.34579293082,-19600.535285536684,-15004.837811569907,-10643.744247406035,-25703.589702080455,-15785.78541109388,-0.068,0.976,0.026000000000000002,192.0,0.0,0.0,0.0,0.0,0.0,0.0,0.0,0.0,0.0,1675725318.49668,0.0
152,152.0,51261.803658223595,61779.79699132407,-31867.97730540959,-19604.826820472103,-14910.71461566861,-10502.79414687087,-25343.190174483083,-15632.005409241368,-0.068,0.976,0.026000000000000002,192.0,0.0,0.0,0.0,0.0,0.0,0.0,0.0,0.0,0.0,1675725318.4967,0.0
153,153.0,51258.38384132193,61828.25557330318,-28357.389969514606,-19659.588594387602,-14915.319075026402,-10461.041088228356,-25133.97784638141,-15578.428277781997,-0.068,0.976,0.026000000000000002,192.0,0.0,0.0,0.0,0.0,0.0,0.0,0.0,0.0,0.0,1675725318.496713,0.0
154,154.0,51190.0322067776,61742.20135715025,-27824.010291577615,-19658.78393158721,-15011.029244784027,-10619.336142460841,-25493.4162489672,-15747.742742030949,-0.068,0.976,0.026000000000000002,192.0,0.0,0.0,0.0,0.0,0.0,0.0,0.0,0.0,0.0,1675725318.496726,0.0
155,155.0,51174.60950310344,61670.67577489326,-31188.6630879239,-19610.25829437474,-15011.141003506304,-10658.921081891189,-25720.53232437758,-15805.32083574782,-0.066,0.982,0.024,192.0,253.0,240.0,30.0,176.0,0.0,192.0,0.0,0.0,0.0,1675725318.496738,0.0
156,156.0,51227.35962001797,61727.53861278756,-32098.15556981034,-19600.35647158104,-14917.420139005202,-10529.191557072587,-25413.732279984033,-15665.488322435418,-0.066,0.982,0.024,192.0,0.0,0.0,0.0,0.0,0.0,0.0,0.0,0.0,0.0,1675725318.496751,0.0
157,157.0,51240.547149246595,61797.63368339941,-28796.534692828023,-19653.620678618037,-14909.418214490202,-10453.553253835827,-25124.523058476814,-15575.589606236173,-0.066,0.982,0.024,192.0,0.0,0.0,0.0,0.0,0.0,0.0,0.0,0.0,0.0,1675725318.496763,0.0
158,158.0,51181.87382005141,61734.57941229099,-27383.502111852424,-19673.98311781682,-15017.73476812062,-10596.850287538802,-25426.15984990118,-15729.615477277695,-0.066,0.982,0.024,192.0,0.0,0.0,0.0,0.0,0.0,0.0,0.0,0.0,0.0,1675725318.496775,0.0
159,159.0,51159.20915117373,61654.649574118805,-30526.62676890216,-19626.32919863811,-15034.565631695466,-10669.314643062908,-25733.585743139476,-15824.073949345822,-0.066,0.982,0.024,192.0,0.0,0.0,0.0,0.0,0.0,0.0,0.0,0.0,0.0,1675725318.496787,0.0
160,160.0,51210.32759074302,61700.381243274365,-32227.728632417755,-19605.609131528036,-14933.803967690941,-10552.638537006205,-25493.639766411754,-15703.799212431815,-0.066,0.982,0.024,192.0,0.0,0.0,0.0,0.0,0.0,0.0,0.0,0.0,0.0,1675725318.4968,0.0
161,161.0,51249.33138481753,61791.50930541865,-29358.546955412265,-19636.36513189854,-14885.971234556584,-10440.633945540661,-25125.283017788293,-15574.069687613213,-0.066,0.982,0.024,192.0,0.0,0.0,0.0,0.0,0.0,0.0,0.0,0.0,0.0,1675725318.496812,0.0
162,162.0,51205.589020918494,61759.90393875885,-27120.042099957718,-19662.583728144615,-14981.68140431421,-10562.205083633076,-25327.29808417536,-15686.163686056578,-0.066,0.982,0.024,192.0,0.0,0.0,0.0,0.0,0.0,0.0,0.0,0.0,0.0,1675725318.496824,0.0
163,163.0,51164.70768030974,61663.14323701182,-29812.399126577275,-19616.941465966876,-15021.758082122575,-10674.120268120798,-25703.254425913627,-15816.027321341911,-0.066,0.982,0.024,192.0,0.0,0.0,0.0,0.0,0.0,0.0,0.0,0.0,0.0,1675725318.496836,0.0
164,164.0,51205.07493079602,61687.39487974583,-32217.960920090787,-19583.52560800619,-14935.23447933608,-10581.584046075826,-25551.307267106447,-15722.932305685557,-0.066,0.982,0.024,192.0,0.0,0.0,0.0,0.0,0.0,0.0,0.0,0.0,0.0,1675725318.496849,0.0
165,165.0,51253.757030219684,61781.45102041376,-29975.49980586765,-19617.27674213371,-14868.648632603721,-10449.999326467434,-25150.942820422988,-15572.438010267975,-0.064,1.0,0.026000000000000002,192.0,254.0,0.0,31.0,64.0,0.0,208.0,0.0,0.0,0.0,1675725318.496861,0.0
166,166.0,51230.73473343071,61783.73089834821,-27086.670945485945,-19652.61485011755,-14945.6280405078,-10523.17893781411,-25240.32744649976,-15640.834348301214,-0.064,1.0,0.026000000000000002,192.0,0.0,0.0,0.0,0.0,0.0,0.0,0.0,0.0,0.0,1675725318.550121,0.0
167,167.0,51183.59490437447,61682.83512387695,-29130.492106734768,-19617.83553574509,-15012.63857038481,-10663.078506359876,-25659.89204167033,-15804.002082824956,-0.064,1.0,0.026000000000000002,192.0,0.0,0.0,0.0,0.0,0.0,0.0,0.0,0.0,0.0,1675725318.550168,0.0
168,168.0,51207.01953256364,61678.54358894153,-32103.609395457435,-19577.557692236627,-14950.38896207678,-10590.591799091317,-25604.280901465525,-15741.886584983658,-0.064,1.0,0.026000000000000002,192.0,0.0,0.0,0.0,0.0,0.0,0.0,0.0,0.0,0.0,1675725318.550201,0.0
169,169.0,51251.67831798534,61766.430648139794,-30645.06866277083,-19607.084346662086,-14881.590292643345,-10446.35599212122,-25200.8989692806,-15585.290263329776,-0.064,1.0,0.026000000000000002,192.0,0.0,0.0,0.0,0.0,0.0,0.0,0.0,0.0,0.0,1675725318.550233,0.0
170,170.0,51227.694896184796,61784.066174515036,-27358.26699236238,-19667.03172529122,-14950.947755688163,-10491.9759025545,-25193.634652332625,-15625.769272538339,-0.064,1.0,0.026000000000000002,192.0,0.0,0.0,0.0,0.0,0.0,0.0,0.0,0.0,0.0,1675725318.550292,0.0
171,171.0,51172.374328657905,61686.14318205633,-28602.789771889424,-19649.418550660437,-15024.820271112952,-10647.544043963439,-25618.876590594842,-15803.532696191394,-0.064,1.0,0.026000000000000002,192.0,0.0,0.0,0.0,0.0,0.0,0.0,0.0,0.0,0.0,1675725318.550343,0.0
172,172.0,51189.36165444394,61669.06644929248,-31950.835222105412,-19598.635387257982,-14966.996308207074,-10604.896915542713,-25654.3041055565,-15773.670765599105,-0.064,1.0,0.026000000000000002,192.0,0.0,0.0,0.0,0.0,0.0,0.0,0.0,0.0,0.0,1675725318.550371,0.0
173,173.0,51241.597681235995,61756.21590092372,-31336.765746684763,-19614.21455314333,-14882.596121143833,-10467.523094120395,-25262.478025254968,-15617.029740456313,-0.064,1.0,0.026000000000000002,192.0,0.0,0.0,0.0,0.0,0.0,0.0,0.0,0.0,0.0,1675725318.550397,0.0
174,174.0,51234.44512301029,61797.343110721486,-27844.84211740996,-19666.338821213107,-14929.892412411264,-10460.348184150242,-25140.370445295626,-15600.332987348198,-0.064,1.0,0.026000000000000002,192.0,0.0,0.0,0.0,0.0,0.0,0.0,0.0,0.0,0.0,1675725318.550423,0.0
175,175.0,51170.38502340139,61702.2140863197,-28182.442865662917,-19658.7392280983,-15028.620067670354,-10630.087331543844,-25550.39084558378,-15780.577454635795,-0.048,1.002,0.032,192.0,254.0,128.0,31.0,80.0,1.0,0.0,0.0,0.0,0.0,1675725318.55045,0.0
176,176.0,51174.8777240369,61662.22681548916,-31688.336335222288,-19607.64314027347,-14996.5900178659,-10632.926003089668,-25696.504199088122,-15796.469544943518,-0.048,1.002,0.032,192.0,0.0,0.0,0.0,0.0,0.0,0.0,0.0,0.0,0.0,1675725318.550476,0.0
177,177.0,51237.99905037869,61741.79902575005,-31937.26771322104,-19604.290378605176,-14886.798249101432,-10485.806821084836,-25332.215467955528,-15637.749807566383,-0.048,1.002,0.032,192.0,0.0,0.0,0.0,0.0,0.0,0.0,0.0,0.0,0.0,1675725318.550502,0.0
178,178.0,51246.492713271706,61805.79207012559,-28496.708392704535,-19660.862643821554,-14898.510563196012,-10444.456093842518,-25109.994424580866,-15578.361222548632,-0.048,1.002,0.032,192.0,0.0,0.0,0.0,0.0,0.0,0.0,0.0,0.0,0.0,1675725318.550528,0.0
179,179.0,51180.55506712855,61723.6717609968,-27905.772972795126,-19684.488437710817,-15011.252762228582,-10612.988247035533,-25475.445446425136,-15757.756323546926,-0.048,1.002,0.032,192.0,0.0,0.0,0.0,0.0,0.0,0.0,0.0,0.0,0.0,1675725318.550554,0.0
180,180.0,51172.7766600581,61661.95859455569,-31374.2049186474,-19626.0833294491,-15003.92139004724,-10653.087276588354,-25715.100850474937,-15816.094376575278,-0.048,1.002,0.032,192.0,0.0,0.0,0.0,0.0,0.0,0.0,0.0,0.0,0.0,1675725318.55058,0.0
181,181.0,51228.81248340756,61727.49390929865,-32480.32569650718,-19605.36326233903,-14908.52414471199,-10514.618219687727,-25406.8479426918,-15667.410572458575,-0.048,1.002,0.032,192.0,0.0,0.0,0.0,0.0,0.0,0.0,0.0,0.0,0.0,1675725318.611656,0.0
182,182.0,51247.81146619457,61804.62977941392,-29294.75507673682,-19661.17556824393,-14897.728252140076,-10435.940079205046,-25109.480334458392,-15573.063859112724,-0.048,1.002,0.032,192.0,0.0,0.0,0.0,0.0,0.0,0.0,0.0,0.0,0.0,1675725318.611669,0.0
183,183.0,51198.65998013735,61753.086656699976,-27805.056012279514,-19683.102629554585,-14992.812573052952,-10577.001938462488,-25391.82757041783,-15718.73017772796,-0.048,1.002,0.032,192.0,0.0,0.0,0.0,0.0,0.0,0.0,0.0,0.0,0.0,1675725318.611676,0.0
184,184.0,51174.40833740334,61667.01008880259,-31009.446800881244,-19632.677094063412,-15014.247895985593,-10655.05423010042,-25713.55858010752,-15819.380083010208,-0.048,1.002,0.032,192.0,0.0,0.0,0.0,0.0,0.0,0.0,0.0,0.0,0.0,1675725318.611683,0.0
185,185.0,51223.13514031591,61711.33359805746,-32908.786285970964,-19604.469192560817,-14925.176194331194,-10535.427693775619,-25482.933280817662,-15696.244322805922,-0.03,0.992,0.03,192.0,255.0,16.0,31.0,0.0,0.0,240.0,0.0,0.0,0.0,1675725318.61169,0.0
186,186.0,51264.26235011368,61806.73084339272,-30173.469206508307,-19639.963762755844,-14876.89642630773,-10421.143224375634,-25110.530866447793,-15560.725696173395,-0.03,0.992,0.03,192.0,0.0,0.0,0.0,0.0,0.0,0.0,0.0,0.0,0.0,1675725318.611696,0.0
187,187.0,51221.30229727057,61780.08756400199,-27886.729286519207,-19677.782914374224,-14972.561892576445,-10537.439350776596,-25301.303005373837,-15675.546607440307,-0.03,0.992,0.03,192.0,0.0,0.0,0.0,0.0,0.0,0.0,0.0,0.0,0.0,1675725318.611703,0.0
188,188.0,51174.274226936606,61675.68256565125,-30598.755848259432,-19639.74024531129,-15026.653114158287,-10662.25149181503,-25699.767553778598,-15820.184745810599,-0.03,0.992,0.03,192.0,0.0,0.0,0.0,0.0,0.0,0.0,0.0,0.0,0.0,1675725318.611709,0.0
189,189.0,51217.256631524164,61699.77774617407,-33199.62718482342,-19598.389518068972,-14933.71456071312,-10563.412077833662,-25553.162461896238,-15722.574677774273,-0.03,0.992,0.03,192.0,0.0,0.0,0.0,0.0,0.0,0.0,0.0,0.0,0.0,1675725318.611716,0.0
190,190.0,51265.983434436734,61793.364500208445,-31105.96163343926,-19634.532288853203,-14872.448429161124,-10429.368666335185,-25145.287829075794,-15568.280585799288,-0.03,0.992,0.03,192.0,0.0,0.0,0.0,0.0,0.0,0.0,0.0,0.0,0.0,1675725318.611722,0.0
191,191.0,51236.45678001127,61792.35867170795,-28142.790870999204,-19681.068620809154,-14959.441418581178,-10505.923391094613,-25229.08451903874,-15639.716761078449,-0.03,0.992,0.03,192.0,0.0,0.0,0.0,0.0,0.0,0.0,0.0,0.0,0.0,1675725318.611729,0.0
192,192.0,51180.57741887301,61685.98671984515,-30154.671389421394,-19643.495338379784,-15029.581192681933,-10648.214596297097,-25664.4070940503,-15809.70177766106,-0.03,0.992,0.03,192.0,0.0,0.0,0.0,0.0,0.0,0.0,0.0,0.0,0.0,1675725318.61174,0.0
193,193.0,51205.07493079602,61684.62326343337,-33305.797970986125,-19596.713137234823,-14962.570662804923,-10579.23711290802,-25618.183686516728,-15749.419122865096,-0.03,0.992,0.03,192.0,0.0,0.0,0.0,0.0,0.0,0.0,0.0,0.0,0.0,1675725318.611747,0.0
194,194.0,51258.98733842222,61782.255683214156,-31969.14130081431,-19612.448765331363,-14879.13160075326,-10437.728218761471,-25198.060297734773,-15579.41175453803,-0.03,0.992,0.03,192.0,0.0,0.0,0.0,0.0,0.0,0.0,0.0,0.0,0.0,1675725318.611753,0.0
195,195.0,51231.33823053101,61797.834849099505,-28592.060934550875,-19672.642013149503,-14950.05368590995,-10475.525018635395,-25180.044791703796,-15612.157060165056,-0.018000000000000002,0.99,0.04,192.0,255.0,112.0,30.0,240.0,1.0,64.0,0.0,0.0,0.0,1675725318.61176,0.0
196,196.0,51172.28492168009,61694.90506588281,-29757.615000917318,-19656.816978075145,-15040.645306187309,-10644.459503228605,-25625.492706953613,-15804.94085609208,-0.018000000000000002,0.99,0.04,192.0,0.0,0.0,0.0,0.0,0.0,0.0,0.0,0.0,0.0,1675725318.671046,0.0
197,197.0,51190.211020733244,61668.641766147826,-33245.269447001156,-19594.54501802266,-14987.112878216849,-10610.686017356637,-25675.806483722507,-15779.191646479565,-0.018000000000000002,0.99,0.04,192.0,0.0,0.0,0.0,0.0,0.0,0.0,0.0,0.0,0.0,1675725318.671059,0.0
198,198.0,51248.459666783776,61756.95350849075,-32768.909069169655,-19598.434221557884,-14890.106307280817,-10455.1178759477,-25275.866720183698,-15608.46902232993,-0.018000000000000002,0.99,0.04,192.0,0.0,0.0,0.0,0.0,0.0,0.0,0.0,0.0,0.0,1675725318.671067,0.0
199,199.0,51253.198236608296,61812.60935218446,-29186.103246939572,-19647.22807970382,-14915.341426770858,-10434.241346626442,-25128.076985845208,-15574.807295180237,-0.018000000000000002,0.99,0.04,192.0,0.0,0.0,0.0,0.0,0.0,0.0,0.0,0.0,0.0,1675725318.671073,0.0
200,200.0,51194.99429404668,61718.620266749895,-29391.068743594737,-19645.97638201432,-15019.29939023249,-10604.695749842615,-25544.19941236966,-15764.528902116885,-0.018000000000000002,0.99,0.04,192.0,0.0,0.0,0.0,0.0,0.0,0.0,0.0,0.0,0.0,1675725318.67108,0.0
201,201.0,51186.299465453565,61656.191844486224,-33071.68579956124,-19603.284550104687,-15014.896096574796,-10623.20299425161,-25729.38361518188,-15804.583228180794,-0.018000000000000002,0.99,0.04,192.0,0.0,0.0,0.0,0.0,0.0,0.0,0.0,0.0,0.0,1675725318.671087,0.0
202,202.0,51245.24101558221,61736.81458673652,-33520.285310779254,-19593.762706966725,-14914.425005248191,-10466.830190042281,-25364.714904393542,-15635.961668009957,-0.018000000000000002,0.99,0.04,192.0,0.0,0.0,0.0,0.0,0.0,0.0,0.0,0.0,0.0,1675725318.671093,0.0
203,203.0,51257.37801282144,61811.871744617434,-29952.432805589775,-19645.283477936206,-14914.648522692743,-10408.268619569377,-25106.373441979104,-15556.769437404804,-0.018000000000000002,0.99,0.04,192.0,0.0,0.0,0.0,0.0,0.0,0.0,0.0,0.0,0.0,1675725318.6711,0.0
204,204.0,51193.161451001346,61732.187775634266,-29139.656321961444,-19667.389353202507,-15027.457776958678,-10583.685110054626,-25473.567899890888,-15743.182986162066,-0.018000000000000002,0.99,0.04,192.0,0.0,0.0,0.0,0.0,0.0,0.0,0.0,0.0,0.0,1675725318.671106,0.0
205,205.0,51187.215886976235,61667.43477194724,-32738.153068799147,-19600.043547158664,-15017.153622764781,-10626.511052430995,-25737.38553969688,-15809.65707417215,-0.022,0.988,0.038,192.0,255.0,80.0,30.0,224.0,1.0,48.0,0.0,0.0,0.0,1675725318.671113,0.0
206,206.0,51243.00584113668,61729.61732502191,-34044.09844208937,-19579.703459704335,-14924.304476297437,-10481.716451849516,-25427.61271329078,-15658.603985143183,-0.022,0.988,0.038,192.0,0.0,0.0,0.0,0.0,0.0,0.0,0.0,0.0,0.0,1675725318.671119,0.0
207,207.0,51266.16224839238,61816.29739001959,-30701.395058798204,-19631.917134751933,-14910.580505201879,-10391.571866461261,-25102.975976821897,-15549.862748368116,-0.022,0.988,0.038,192.0,0.0,0.0,0.0,0.0,0.0,0.0,0.0,0.0,0.0,1675725318.671126,0.0
208,208.0,51202.102148783466,61755.36653463442,-28934.713177050733,-19665.31064096816,-15025.669637402254,-10545.620089247239,-25396.96847164255,-15712.315227069286,-0.022,0.988,0.038,192.0,0.0,0.0,0.0,0.0,0.0,0.0,0.0,0.0,0.0,1675725318.671133,0.0
209,209.0,51174.833020547994,61657.510597409084,-32202.98525130573,-19612.292303120175,-15057.40911452879,-10639.63152642626,-25751.28832474808,-15830.734769193503,-0.022,0.988,0.038,192.0,0.0,0.0,0.0,0.0,0.0,0.0,0.0,0.0,0.0,1675725318.671139,0.0
210,210.0,51223.85039613848,61697.69903393973,-34298.03661084612,-19576.484808502773,-14958.010906936039,-10516.048731332867,-25516.796173667455,-15702.659273464595,-0.022,0.988,0.038,192.0,0.0,0.0,0.0,0.0,0.0,0.0,0.0,0.0,0.0,1675725318.671146,0.0
211,211.0,51274.47709732975,61801.254666001165,-31437.303893244734,-19614.706291521346,-14908.43473773417,-10391.05777633879,-25117.750479906856,-15554.310745514722,-0.022,0.988,0.038,192.0,0.0,0.0,0.0,0.0,0.0,0.0,0.0,0.0,0.0,1675725318.736513,0.0
212,212.0,51230.622974708436,61771.10216273095,-28818.148829716305,-19658.448655420383,-15008.548201149488,-10509.186745785088,-25303.158200163627,-15673.24437776141,-0.022,0.988,0.038,192.0,0.0,0.0,0.0,0.0,0.0,0.0,0.0,0.0,0.0,1675725318.736525,0.0
213,213.0,51183.505497396654,61662.78560910054,-31497.541844551786,-19619.400157856962,-15068.003841400605,-10644.437151484151,-25729.13774599287,-15834.288696561898,-0.022,0.988,0.038,192.0,0.0,0.0,0.0,0.0,0.0,0.0,0.0,0.0,0.0,1675725318.736533,0.0
214,214.0,51225.862053139455,61681.695184909724,-34289.989982842206,-19579.278776559684,-14983.626006081822,-10546.581214258817,-25593.328546682424,-15736.812738992303,-0.028,0.99,0.036000000000000004,192.0,255.0,32.0,30.0,240.0,1.0,32.0,0.0,0.0,0.0,1675725318.736546,0.0
215,215.0,51279.908571232394,61790.19055249579,-32116.43929677478,-19608.559561796137,-14903.003263831528,-10401.093709599223,-25158.475358304426,-15565.687783442472,-0.028,0.99,0.036000000000000004,192.0,0.0,0.0,0.0,0.0,0.0,0.0,0.0,0.0,0.0,1675725318.736552,0.0
216,216.0,51249.80077145109,61794.66090138685,-28836.097280513917,-19654.581803629615,-14971.645471053776,-10473.714527334516,-25217.886295066633,-15628.987923739902,-0.028,0.99,0.036000000000000004,192.0,0.0,0.0,0.0,0.0,0.0,0.0,0.0,0.0,0.0,1675725318.736559,0.0
217,217.0,51191.84269807848,61676.35311798491,-30747.774928542964,-19626.195088171375,-15047.59669871291,-10639.00567758151,-25677.41580932329,-15817.591943453783,-0.028,0.99,0.036000000000000004,192.0,0.0,0.0,0.0,0.0,0.0,0.0,0.0,0.0,0.0,1675725318.736566,0.0
218,218.0,51215.96023034576,61663.56792015647,-34056.146032350785,-19575.836607913567,-14982.419011881235,-10572.397479104697,-25647.531526986546,-15759.276242169886,-0.028,0.99,0.036000000000000004,192.0,0.0,0.0,0.0,0.0,0.0,0.0,0.0,0.0,0.0,1675725318.736572,0.0
219,219.0,51262.58596927953,61754.96420323422,-32726.32899598229,-19599.104773891544,-14903.271484764993,-10407.687474213539,-25214.734699098433,-15578.651795226551,-0.028,0.99,0.036000000000000004,192.0,0.0,0.0,0.0,0.0,0.0,0.0,0.0,0.0,0.0,1675725318.736578,0.0
220,220.0,51240.122466101944,61782.859180314445,-29005.277634296137,-19663.433094433916,-14963.665898283232,-10438.01879143939,-25159.391779827092,-15598.14251639158,-0.028,0.99,0.036000000000000004,192.0,0.0,0.0,0.0,0.0,0.0,0.0,0.0,0.0,0.0,1675725318.736585,0.0
221,221.0,51180.59977061746,61673.82737086146,-29985.55809087254,-19646.669286092438,-15052.357620281891,-10617.77152034897,-25619.569494672956,-15797.140097277177,-0.028,0.99,0.036000000000000004,192.0,0.0,0.0,0.0,0.0,0.0,0.0,0.0,0.0,0.0,1675725318.736591,0.0
222,222.0,51202.21390750574,61646.62529785935,-33642.79522213879,-19583.615014984014,-14988.230465439614,-10594.168078204166,-25688.725792017674,-15777.112934245222,-0.028,0.99,0.036000000000000004,192.0,0.0,0.0,0.0,0.0,0.0,0.0,0.0,0.0,0.0,1675725318.736598,0.0
223,223.0,51267.16807689286,61743.4754065842,-33206.533873860106,-19583.480904517284,-14875.532969895956,-10427.133491889655,-25258.454711253013,-15590.65468199905,-0.028,0.99,0.036000000000000004,192.0,0.0,0.0,0.0,0.0,0.0,0.0,0.0,0.0,0.0,1675725318.736604,0.0
224,224.0,51257.75799247718,61796.225523498724,-29356.937629811484,-19651.586669872602,-14914.939095370662,-10410.906125415102,-25098.9750145644,-15564.011402608325,-0.022,0.994,0.032,192.0,255.0,80.0,31.0,16.0,1.0,0.0,0.0,0.0,0.0,1675725318.736611,0.0
225,225.0,51182.34320668498,61690.56882745848,-29333.825926044698,-19668.70810612537,-15039.103035819893,-10604.271066697964,-25541.271333846016,-15777.783486578881,-0.022,0.994,0.032,192.0,0.0,0.0,0.0,0.0,0.0,0.0,0.0,0.0,0.0,1675725318.736617,0.0
226,226.0,51186.74650034267,61639.49509137811,-33094.12695099437,-19592.041622643665,-15010.44809942819,-10619.336142460841,-25729.696539604254,-15808.427728227107,-0.022,0.994,0.032,192.0,0.0,0.0,0.0,0.0,0.0,0.0,0.0,0.0,0.0,1675725318.776951,1.0
227,227.0,51256.66275699887,61725.750473231135,-33626.99253880889,-19576.484808502773,-14895.80600211692,-10460.370535894697,-25346.96761929603,-15630.776063296327,-0.022,0.994,0.032,192.0,0.0,0.0,0.0,0.0,0.0,0.0,0.0,0.0,0.0,1675725318.776982,1.0
228,228.0,51270.185562394334,61802.19343926829,-29888.797389125513,-19639.628486589016,-14895.47072595009,-10398.791479920326,-25071.907052029022,-15550.488597212863,-0.022,0.994,0.032,192.0,0.0,0.0,0.0,0.0,0.0,0.0,0.0,0.0,0.0,1675725318.777002,1.0
229,229.0,51205.99135231869,61727.2703918541,-28850.268286498584,-19659.923870554434,-15010.44809942819,-10574.27502563894,-25442.40956812019,-15739.383189604663,-0.022,0.994,0.032,192.0,0.0,0.0,0.0,0.0,0.0,0.0,0.0,0.0,0.0,1675725318.777019,1.0
230,230.0,51185.00306427516,61645.507710636586,-32478.023466828286,-19604.35743383854,-15019.12057627685,-10637.15048279172,-25739.19603099776,-15827.247897058476,-0.022,0.994,0.032,192.0,0.0,0.0,0.0,0.0,0.0,0.0,0.0,0.0,0.0,1675725318.777037,1.0
231,231.0,51242.290585314106,61710.081900367964,-33927.80231568841,-19582.832703928078,-14918.537726227967,-10491.88649557668,-25432.731262771045,-15673.177322528045,-0.022,0.994,0.032,192.0,0.0,0.0,0.0,0.0,0.0,0.0,0.0,0.0,0.0,1675725318.777055,1.0
232,232.0,51271.86194322848,61807.200230026276,-30548.531478468358,-19632.542983596682,-14891.939150326152,-10387.682662926038,-25075.997421264343,-15547.180539033478,-0.022,0.994,0.032,192.0,0.0,0.0,0.0,0.0,0.0,0.0,0.0,0.0,0.0,1675725318.777072,1.0
233,233.0,51216.47432046823,61756.70763930174,-28560.07558823533,-19662.248451977786,-14996.545314376988,-10538.311068810353,-25351.415616442635,-15701.29581705282,-0.022,0.994,0.032,192.0,0.0,0.0,0.0,0.0,0.0,0.0,0.0,0.0,0.0,1675725318.777089,1.0
234,234.0,51186.65709336485,61661.04217303303,-31799.424505165163,-19610.25829437474,-15028.284791503525,-10643.699543917126,-25728.08721400347,-15829.594830226282,-0.02,0.98,0.036000000000000004,192.0,255.0,96.0,30.0,160.0,1.0,32.0,0.0,0.0,0.0,1675725318.777107,1.0
235,235.0,51236.18855907781,61701.565885730495,-34064.79615745499,-19578.54116899266,-14935.569755502911,-10522.150757569165,-25508.14604856325,-15701.92166589757,-0.02,0.98,0.036000000000000004,192.0,0.0,0.0,0.0,0.0,0.0,0.0,0.0,0.0,0.0,1675725318.792958,1.0
236,236.0,51273.09128917352,61799.42182295583,-31267.542394106677,-19628.094986450076,-14882.059679276907,-10395.43871825203,-25104.026508811297,-15553.260213525322,-0.02,0.98,0.036000000000000004,192.0,0.0,0.0,0.0,0.0,0.0,0.0,0.0,0.0,0.0,1675725318.851252,1.0
237,237.0,51230.31005028606,61774.16435172133,-28467.651124912638,-19673.60313816108,-14972.226616409615,-10512.718321409026,-25272.24573758194,-15665.86830209116,-0.02,0.98,0.036000000000000004,192.0,0.0,0.0,0.0,0.0,0.0,0.0,0.0,0.0,0.0,1675725318.851265,0.0
238,238.0,51181.27032295112,61659.07521952096,-31098.67496474683,-19632.788852785692,-15045.227413800647,-10658.518750490994,-25713.647987085344,-15834.13223435071,-0.02,0.98,0.036000000000000004,192.0,0.0,0.0,0.0,0.0,0.0,0.0,0.0,0.0,0.0,1675725318.851273,0.0
239,239.0,51223.47041648274,61675.570806928976,-34050.55809623696,-19587.481866774782,-14965.096409928372,-10560.349888843286,-25592.143904226294,-15738.511471570906,-0.02,0.98,0.036000000000000004,192.0,0.0,0.0,0.0,0.0,0.0,0.0,0.0,0.0,0.0,1675725318.851281,0.0
240,240.0,51276.77932700865,61782.27803495861,-31984.80987367748,-19613.99103569878,-14889.815734602898,-10408.022750380367,-25152.21686985694,-15563.296146785755,-0.02,0.98,0.036000000000000004,192.0,0.0,0.0,0.0,0.0,0.0,0.0,0.0,0.0,0.0,1675725318.851288,0.0
241,241.0,51250.67248948485,61792.582189152505,-28553.772396298933,-19661.443789177392,-14952.91470920023,-10479.324815192796,-25189.209006930472,-15621.276571902821,-0.02,0.98,0.036000000000000004,192.0,0.0,0.0,0.0,0.0,0.0,0.0,0.0,0.0,0.0,1675725318.851296,0.0
242,242.0,51197.14006151439,61676.93426334075,-30350.964409227898,-19631.961838240844,-15023.546221679,-10649.801570153424,-25650.727826443654,-15813.903905618658,-0.02,0.98,0.036000000000000004,192.0,0.0,0.0,0.0,0.0,0.0,0.0,0.0,0.0,0.0,1675725318.851303,0.0
243,243.0,51224.56565196105,61664.97608005716,-33788.84152040977,-19580.23990157126,-14947.974973675606,-10590.61415083577,-25626.319721498458,-15760.349125903742,-0.02,0.98,0.036000000000000004,192.0,0.0,0.0,0.0,0.0,0.0,0.0,0.0,0.0,0.0,1675725318.85131,0.0
244,244.0,51281.76376602218,61766.229482439696,-32591.100942027682,-19598.881256446988,-14863.843007545831,-10426.328829089265,-25184.64925106159,-15576.237806825378,-0.012,0.986,0.04,192.0,255.0,160.0,30.0,208.0,1.0,64.0,0.0,0.0,0.0,1675725318.851318,0.0
245,245.0,51264.41881232486,61799.95826482276,-28825.435498408737,-19656.057018763666,-14929.512432755522,-10451.720410790493,-25125.595942210668,-15593.538057033786,-0.012,0.986,0.04,192.0,0.0,0.0,0.0,0.0,0.0,0.0,0.0,0.0,0.0,1675725318.851325,0.0
246,246.0,51190.345131199974,61679.81763837548,-29697.39940135472,-19654.067713507142,-15034.275059017547,-10644.437151484151,-25603.230369476125,-15811.042882328378,-0.012,0.986,0.04,192.0,0.0,0.0,0.0,0.0,0.0,0.0,0.0,0.0,0.0,1675725318.851333,0.0
247,247.0,51207.57832617502,61644.90421353629,-33444.06586218665,-19593.695651733356,-14969.276186141515,-10617.235078482043,-25695.09603918744,-15798.704719389048,-0.012,0.986,0.04,192.0,0.0,0.0,0.0,0.0,0.0,0.0,0.0,0.0,0.0,1675725318.85134,0.0
248,248.0,51265.37993733644,61735.89816521385,-33205.59510059298,-19601.474058803804,-14873.744830339532,-10451.49689334594,-25279.28653708536,-15619.644894557583,-0.012,0.986,0.04,192.0,0.0,0.0,0.0,0.0,0.0,0.0,0.0,0.0,0.0,1675725318.851348,0.0
249,249.0,51265.46934431426,61799.13125027791,-29310.110725177616,-19655.52057689674,-14900.879848108274,-10426.105311644711,-25085.854540569133,-15576.84130392567,-0.012,0.986,0.04,192.0,0.0,0.0,0.0,0.0,0.0,0.0,0.0,0.0,0.0,1675725318.851355,0.0
250,250.0,51208.382988975405,61708.763147445105,-29153.313237823637,-19650.759655327758,-15004.748404592086,-10604.204011464599,-25503.407478738725,-15766.495855628951,-0.012,0.986,0.04,192.0,0.0,0.0,0.0,0.0,0.0,0.0,0.0,0.0,0.0,1675725318.851363,0.0
251,251.0,51201.16337551634,61640.38916115632,-32943.878524765794,-19594.50031453375,-14990.35388116287,-10630.176738521664,-25708.462382371712,-15810.148812550166,-0.012,0.986,0.04,192.0,0.0,0.0,0.0,0.0,0.0,0.0,0.0,0.0,0.0,1675725318.90127,0.0
252,252.0,51263.03300416863,61722.196545862746,-33648.40550999707,-19582.385669038973,-14886.060641534406,-10465.35497490823,-25342.49727040497,-15636.81103429926,-0.012,0.986,0.04,192.0,0.0,0.0,0.0,0.0,0.0,0.0,0.0,0.0,0.0,1675725318.901284,0.0
253,253.0,51276.1534781639,61803.37808172442,-29936.853639704426,-19645.775216314225,-14892.632054404266,-10395.14814557411,-25057.57958383317,-15550.600355935141,-0.012,0.986,0.04,192.0,0.0,0.0,0.0,0.0,0.0,0.0,0.0,0.0,0.0,1675725318.901292,0.0
254,254.0,51209.634686664904,61726.55513603153,-28727.758375139045,-19667.389353202507,-15012.951494807185,-10573.76093551647,-25420.437803320623,-15739.584355304762,-0.01,0.976,0.05,192.0,255.0,176.0,30.0,128.0,1.0,144.0,0.0,0.0,0.0,1675725318.9013,0.0
255,255.0,51190.211020733244,61642.44552164621,-32341.990750073288,-19609.69950076336,-15019.58996291041,-10647.76756140799,-25729.025987270594,-15832.94759189458,-0.01,0.976,0.05,192.0,0.0,0.0,0.0,0.0,0.0,0.0,0.0,0.0,0.0,1675725318.901308,0.0
256,0.0,51246.4480097828,61704.04692936503,-33954.982036946065,-19584.620843484503,-14908.43473773417,-10502.995312570967,-25430.89841972571,-15679.1005348087,-0.01,0.976,0.05,192.0,0.0,0.0,0.0,0.0,0.0,0.0,0.0,0.0,0.0,1675725318.901321,0.0
257,1.0,51279.841515999025,61806.932009092816,-30640.151278990663,-19631.112471951543,-14874.884769306753,-10390.029596093846,-25058.205432677918,-15542.106693042124,-0.01,0.976,0.05,192.0,0.0,0.0,0.0,0.0,0.0,0.0,0.0,0.0,0.0,1675725318.901329,0.0
258,2.0,51228.05252409608,61761.334450403985,-28500.73170670649,-19665.891786324,-14980.005023480062,-10540.61329848925,-25318.44679337106,-15692.690395437527,-0.01,0.976,0.05,192.0,0.0,0.0,0.0,0.0,0.0,0.0,0.0,0.0,0.0,1675725318.901336,0.0
259,3.0,51193.07204402352,61659.49990266561,-31690.280936989897,-19617.366149111527,-15021.154585022281,-10658.854026657824,-25717.447783642743,-15836.36740879624,-0.01,0.976,0.05,192.0,0.0,0.0,0.0,0.0,0.0,0.0,0.0,0.0,0.0,1675725318.901343,0.0
260,4.0,51244.1457801039,61700.69416769674,-34098.68140204923,-19577.870616659002,-14926.897278654253,-10535.762969942447,-25508.458972985623,-15708.11309911169,-0.01,0.976,0.05,192.0,0.0,0.0,0.0,0.0,0.0,0.0,0.0,0.0,0.0,1675725318.901351,0.0
261,5.0,51287.64227481393,61807.31198874855,-31394.03091597926,-19617.27674213371,-14869.18507447065,-10400.132584587644,-25089.09554351515,-15547.69462915595,-0.01,0.976,0.05,192.0,0.0,0.0,0.0,0.0,0.0,0.0,0.0,0.0,0.0,1675725318.901358,0.0
262,6.0,51241.97766089173,61789.1847239953,-28478.603479695736,-19666.40587644647,-14967.890377985284,-10515.087606321289,-25242.719083156477,-15659.430999688031,-0.01,0.976,0.05,192.0,0.0,0.0,0.0,0.0,0.0,0.0,0.0,0.0,0.0,1675725318.901365,0.0
263,7.0,51182.65613110735,61670.049926048516,-30999.053239709527,-19633.191184185886,-15038.857166630885,-10668.264111073508,-25697.80060026653,-15841.910641421156,-0.01,0.976,0.05,192.0,0.0,0.0,0.0,0.0,0.0,0.0,0.0,0.0,0.0,1675725318.901373,0.0
264,8.0,51217.837776880006,61678.65534766381,-34062.06924463144,-19591.460477287827,-14958.279127869502,-10576.823124506847,-25601.93396829772,-15760.192663692555,0.022,0.98,0.056,192.0,0.0,176.0,30.0,160.0,1.0,192.0,0.0,0.0,0.0,1675725318.90138,0.0
265,9.0,51276.48875433073,61788.91650306184,-32138.522820296625,-19612.292303120175,-14866.391106413736,-10412.82837543826,-25153.088587890696,-15575.611957980629,0.022,0.98,0.056,192.0,0.0,0.0,0.0,0.0,0.0,0.0,0.0,0.0,0.0,1675725318.901388,0.0
266,10.0,51238.78136143462,61794.10210777547,-28626.504972756502,-19672.910234082967,-14954.255813867549,-10477.469620403006,-25181.40824811557,-15630.70900806296,0.022,0.98,0.056,192.0,0.0,0.0,0.0,0.0,0.0,0.0,0.0,0.0,0.0,1675725318.950944,0.0
267,11.0,51178.386947916384,61678.05185056351,-30296.828484157144,-19648.524480882228,-15047.842567901918,-10654.271919044486,-25652.247745066616,-15832.500557005473,0.022,0.98,0.056,192.0,0.0,0.0,0.0,0.0,0.0,0.0,0.0,0.0,0.0,1675725318.950962,0.0
268,12.0,51209.1876517758,61669.200559759214,-33839.46822160104,-19586.900721418944,-14981.033203725006,-10588.28956941242,-25647.486823497635,-15777.537617389873,0.022,0.98,0.056,192.0,0.0,0.0,0.0,0.0,0.0,0.0,0.0,0.0,0.0,1675725318.950973,0.0
269,13.0,51257.93680643282,61761.35680214844,-32785.87404321123,-19609.341872852074,-14888.340519468848,-10403.708863700493,-25201.234245447427,-15581.98220515039,0.022,0.98,0.056,192.0,0.0,0.0,0.0,0.0,0.0,0.0,0.0,0.0,0.0,1675725318.950983,0.0
270,14.0,51242.73762020322,61799.086546789,-28959.6353721184,-19671.94910907139,-14931.501738012044,-10427.804044223314,-25106.574607679202,-15586.877237186103,0.022,0.98,0.056,192.0,0.0,0.0,0.0,0.0,0.0,0.0,0.0,0.0,0.0,1675725318.950992,0.0
271,15.0,51181.80676481805,61691.97698735917,-29655.422825267655,-19655.922908296932,-15038.11955906386,-10621.750130862014,-25568.741627781586,-15798.03416705539,0.022,0.98,0.056,192.0,0.0,0.0,0.0,0.0,0.0,0.0,0.0,0.0,0.0,1675725318.951002,0.0
272,16.0,51198.682331881806,61654.11313225188,-33442.03185344122,-19589.8735034315,-14987.224636939125,-10601.186525963132,-25674.26421335509,-15794.83786759828,0.022,0.98,0.056,192.0,0.0,0.0,0.0,0.0,0.0,0.0,0.0,0.0,0.0,1675725318.951011,0.0
273,17.0,51265.11171640298,61751.56673807702,-33342.432480148374,-19586.54309350766,-14875.063583262396,-10427.960506434501,-25251.011580349397,-15600.981187937403,0.022,0.98,0.056,192.0,0.0,0.0,0.0,0.0,0.0,0.0,0.0,0.0,0.0,1675725318.951021,0.0
274,18.0,51268.10685015999,61814.91158186336,-29459.308619416788,-19651.810187317158,-14909.887601123763,-10394.879924640647,-25052.8633657531,-15551.315611757711,0.03,0.976,0.062,192.0,0.0,240.0,30.0,128.0,1.0,240.0,0.0,0.0,0.0,1675725318.95103,0.0
275,19.0,51196.80478534756,61716.049816137536,-29116.81283912812,-19667.076428780132,-15036.376122996346,-10590.301226413398,-25480.832216838866,-15764.350088161242,0.03,0.976,0.062,192.0,0.0,0.0,0.0,0.0,0.0,0.0,0.0,0.0,0.0,1675725318.951039,0.0
276,20.0,51191.21684923373,61654.73898109663,-32913.90483545123,-19604.625654772004,-15010.626913383832,-10620.565488405882,-25700.683975301265,-15814.55210620786,0.03,0.976,0.062,192.0,0.0,0.0,0.0,0.0,0.0,0.0,0.0,0.0,0.0,1675725318.951049,0.0
277,21.0,51249.510198773176,61731.338409344964,-33736.00199651742,-19593.338023822074,-14905.193734788149,-10458.805913782826,-25341.558497137845,-15641.728418079427,0.03,0.976,0.062,192.0,0.0,0.0,0.0,0.0,0.0,0.0,0.0,0.0,0.0,1675725318.951058,0.0
278,22.0,51264.37410883595,61814.30808476306,-30044.589047979003,-19654.067713507142,-14903.651464420733,-10382.362947745676,-25048.348313373128,-15546.107655299624,0.03,0.976,0.062,192.0,0.0,0.0,0.0,0.0,0.0,0.0,0.0,0.0,0.0,1675725318.951077,0.0
279,23.0,51187.640570120886,61728.74560698815,-28686.273537429995,-19687.483571467827,-15030.74348339361,-10564.686127267614,-25401.68468972262,-15737.371532603685,0.03,0.976,0.062,192.0,0.0,0.0,0.0,0.0,0.0,0.0,0.0,0.0,0.0,1675725318.951086,0.0
280,24.0,51164.059479720534,61636.05292273199,-32238.166897078383,-19628.050282961165,-15046.277945790047,-10641.263203771498,-25718.297149932045,-15836.903850663168,0.03,0.976,0.062,192.0,0.0,0.0,0.0,0.0,0.0,0.0,0.0,0.0,0.0,1675725318.951096,0.0
281,25.0,51219.022419336135,61693.1616298153,-33938.03941464894,-19600.40117506995,-14938.162557859727,-10498.770832868915,-25434.60880930529,-15685.739002911927,0.03,0.976,0.062,192.0,0.0,0.0,0.0,0.0,0.0,0.0,0.0,0.0,0.0,1675725318.994098,0.0
282,26.0,51254.807562209084,61790.481125173705,-30671.55547995037,-19654.425341418428,-14900.142240541249,-10382.877037868147,-25064.82154903669,-15545.057123310224,0.03,0.976,0.062,192.0,0.0,0.0,0.0,0.0,0.0,0.0,0.0,0.0,0.0,1675725318.994115,0.0
283,27.0,51205.74548312968,61747.2752031416,-28381.75337097089,-19687.9976615903,-15000.501573145579,-10528.364542527741,-25313.462354357525,-15691.52810472585,0.038,0.972,0.062,192.0,1.0,48.0,30.0,96.0,1.0,240.0,0.0,0.0,0.0,1675725318.994125,0.0
284,28.0,51166.94285475527,61641.81967280146,-31448.83739338367,-19636.208669687352,-15041.427617243246,-10648.72868641957,-25709.825838783487,-15837.932030908112,0.038,0.972,0.062,192.0,0.0,0.0,0.0,0.0,0.0,0.0,0.0,0.0,0.0,1675725318.994135,0.0
285,29.0,51209.791148876095,61669.5581876705,-33946.57778103087,-19602.9269221934,-14958.994383692074,-10534.533623997406,-25520.014824869017,-15719.847764950726,0.038,0.972,0.062,192.0,0.0,0.0,0.0,0.0,0.0,0.0,0.0,0.0,0.0,1675725318.994144,0.0
286,30.0,51256.707460487785,61773.80672381005,-31319.353737754078,-19643.472986635326,-14888.80990610241,-10395.416366507574,-25099.265587242317,-15555.920071115503,0.038,0.972,0.062,192.0,0.0,0.0,0.0,0.0,0.0,0.0,0.0,0.0,0.0,1675725318.994154,0.0
287,31.0,51222.62105019344,61768.263491185135,-28263.043256168756,-19683.48260921033,-14970.885511742295,-10495.351015967253,-25226.089385281728,-15650.400894928087,0.038,0.972,0.062,192.0,0.0,0.0,0.0,0.0,0.0,0.0,0.0,0.0,0.0,1675725318.994163,0.0
288,32.0,51178.40929966084,61656.3036032085,-30620.280578169895,-19640.477852878317,-15036.912564863273,-10645.711200918104,-25664.585908005945,-15826.756158680459,0.038,0.972,0.062,192.0,0.0,0.0,0.0,0.0,0.0,0.0,0.0,0.0,0.0,1675725318.994173,0.0
289,33.0,51211.80280587707,61657.97998404265,-33727.9106650246,-19593.270968588706,-14972.405430365257,-10559.589929531805,-25577.25764241906,-15745.418160607596,0.038,0.972,0.062,192.0,0.0,0.0,0.0,0.0,0.0,0.0,0.0,0.0,0.0,1675725318.994182,0.0
290,34.0,51265.17877163634,61764.73191556119,-31894.106494677842,-19618.327274123105,-14889.078127035873,-10399.014997364879,-25137.7329394499,-15564.883120642082,0.038,0.972,0.062,192.0,0.0,0.0,0.0,0.0,0.0,0.0,0.0,0.0,0.0,1675725319.047172,0.0
291,35.0,51239.47426551274,61782.18862798079,-28310.630120114103,-19669.780989859224,-14949.740761487576,-10454.0673439583,-25140.70572146246,-15608.401967096564,0.038,0.972,0.062,192.0,0.0,0.0,0.0,0.0,0.0,0.0,0.0,0.0,0.0,1675725319.04727,0.0
292,36.0,51181.80676481805,61671.234568504646,-29815.61777777884,-19641.12605346752,-15035.59381194041,-10629.081503043355,-25601.48693340861,-15807.779527637904,0.038,0.972,0.062,192.0,0.0,0.0,0.0,0.0,0.0,0.0,0.0,0.0,0.0,1675725319.047282,0.0
293,37.0,51204.51613718464,61650.603908372395,-33380.184576533386,-19587.146590607954,-14982.061383969949,-10577.940711729612,-25623.16812553026,-15769.31217543032,0.036000000000000004,0.974,0.068,192.0,1.0,32.0,30.0,112.0,2.0,32.0,0.0,0.0,0.0,1675725319.047294,0.0
294,38.0,51254.29347208661,61740.65908678283,-32483.834920386664,-19608.112526907033,-14901.773917886487,-10412.448395782518,-25201.815390803265,-15588.017176153324,0.036000000000000004,0.974,0.068,192.0,0.0,0.0,0.0,0.0,0.0,0.0,0.0,0.0,0.0,1675725319.047305,0.0
295,39.0,51246.492713271706,61787.620101883425,-28641.234772352553,-19667.478760180325,-14942.476444539601,-10417.052855140311,-25094.86229358462,-15579.299995815754,0.036000000000000004,0.974,0.068,192.0,0.0,0.0,0.0,0.0,0.0,0.0,0.0,0.0,0.0,1675725319.047317,0.0
296,40.0,51188.89226781038,61686.14318205633,-29141.80208942915,-19654.157120484964,-15041.427617243246,-10605.992151021022,-25538.56677276692,-15786.210094238531,0.036000000000000004,0.974,0.068,192.0,0.0,0.0,0.0,0.0,0.0,0.0,0.0,0.0,0.0,1675725319.047327,0.0
297,41.0,51198.79409060408,61638.26574543307,-32920.07391692089,-19590.49935227625,-14997.439384155201,-10595.509182871483,-25662.529547516056,-15793.40735595314,0.036000000000000004,0.974,0.068,192.0,0.0,0.0,0.0,0.0,0.0,0.0,0.0,0.0,0.0,1675725319.047338,0.0
298,42.0,51259.076745400045,61724.297609841546,-32957.69190283917,-19595.573198267604,-14896.409499217214,-10421.59025926474,-25267.775388690876,-15610.65949328655,0.036000000000000004,0.974,0.068,192.0,0.0,0.0,0.0,0.0,0.0,0.0,0.0,0.0,0.0,1675725319.047347,0.0
299,43.0,51265.87167571446,61795.97965430971,-29075.819739797087,-19652.726608839825,-14914.514412226012,-10379.166648288567,-25052.550441330724,-15549.639230923562,0.036000000000000004,0.974,0.068,192.0,0.0,0.0,0.0,0.0,0.0,0.0,0.0,0.0,0.0,1675725319.047366,0.0
300,44.0,51203.66677089534,61709.65721722331,-28553.571230598838,-19647.496300637282,-15024.708512390676,-10568.262406380463,-25455.530042115457,-15747.295707141842,0.036000000000000004,0.974,0.068,192.0,0.0,0.0,0.0,0.0,0.0,0.0,0.0,0.0,0.0,1675725319.047375,0.0
301,45.0,51197.408282447854,61638.62337334435,-32318.186142228384,-19587.124238863496,-15016.214849497659,-10610.015465022978,-25695.09603918744,-15808.69594916057,0.036000000000000004,0.974,0.068,192.0,0.0,0.0,0.0,0.0,0.0,0.0,0.0,0.0,0.0,1675725319.047385,0.0
302,46.0,51258.85322795549,61713.814641692006,-33281.38986604093,-19571.723886933793,-14912.122775569294,-10453.977936980478,-25351.572078653822,-15640.208499456467,0.036000000000000004,0.974,0.068,192.0,0.0,0.0,0.0,0.0,0.0,0.0,0.0,0.0,0.0,1675725319.047394,0.0
303,47.0,51282.970760222765,61800.31589273404,-29638.61431343726,-19629.279628906206,-14904.277313265482,-10371.969386573957,-25049.28708664025,-15536.317591228199,0.018000000000000002,0.978,0.066,192.0,0.0,144.0,30.0,144.0,2.0,16.0,0.0,0.0,0.0,1675725319.047404,0.0
304,48.0,51223.24689903819,61732.14307214536,-28131.033853415713,-19652.79366407319,-15017.555954164978,-10537.193481587587,-25378.193006300095,-15707.531953755852,0.018000000000000002,0.978,0.066,192.0,0.0,0.0,0.0,0.0,0.0,0.0,0.0,0.0,0.0,1675725319.047414,0.0
305,49.0,51190.635703877895,61635.67294307625,-31614.955558175512,-19598.7247942358,-15035.482053218133,-10625.169947763676,-25705.154324192325,-15815.647341686172,0.018000000000000002,0.978,0.066,192.0,0.0,0.0,0.0,0.0,0.0,0.0,0.0,0.0,0.0,1675725319.105972,0.0
306,50.0,51250.73954471821,61689.27242628008,-33453.61005706907,-19565.845378142047,-14921.823432662897,-10483.862219317225,-25428.79735574691,-15662.180264256032,0.018000000000000002,0.978,0.066,192.0,0.0,0.0,0.0,0.0,0.0,0.0,0.0,0.0,0.0,1675725319.106015,0.0
307,51.0,51290.9056295044,61790.59288389598,-30279.95291709339,-19613.11931766502,-14878.036365274951,-10361.128790513134,-25051.589316319147,-15517.139794485545,0.018000000000000002,0.978,0.066,192.0,0.0,0.0,0.0,0.0,0.0,0.0,0.0,0.0,0.0,1675725319.106044,0.0
308,52.0,51237.48496025622,61747.74458977516,-27864.08696938598,-19656.615812375047,-14986.419974138735,-10507.957399840046,-25286.774371477888,-15658.380467698631,0.018000000000000002,0.978,0.066,192.0,0.0,0.0,0.0,0.0,0.0,0.0,0.0,0.0,0.0,1675725319.106071,0.0
309,53.0,51192.40149168987,61639.003353000095,-30848.000150680564,-19609.63244552999,-15034.54327995101,-10645.286517773453,-25692.79380950854,-15813.680388174105,0.018000000000000002,0.978,0.066,192.0,0.0,0.0,0.0,0.0,0.0,0.0,0.0,0.0,0.0,1675725319.106097,0.0
310,54.0,51238.78136143462,61670.876940593356,-33455.554658836685,-19568.14760782094,-14945.382171318792,-10529.146853583678,-25517.04204285646,-15698.68066295155,0.018000000000000002,0.978,0.066,192.0,0.0,0.0,0.0,0.0,0.0,0.0,0.0,0.0,0.0,1675725319.106123,0.0
311,55.0,51292.44789987182,61782.74742159217,-30936.356596512393,-19604.826820472103,-14877.008185030007,-10380.23953202242,-25087.463866169914,-15524.962905044904,0.018000000000000002,0.978,0.066,192.0,0.0,0.0,0.0,0.0,0.0,0.0,0.0,0.0,0.0,1675725319.106149,0.0
312,56.0,51255.433411053826,61779.79699132407,-27798.015212776092,-19653.21834721784,-14957.72033425812,-10476.687309347071,-25196.920358767555,-15611.71002527595,0.018000000000000002,0.978,0.066,192.0,0.0,0.0,0.0,0.0,0.0,0.0,0.0,0.0,0.0,1675725319.106175,0.0
313,57.0,51206.61720116344,61667.591234158426,-30067.410179067872,-19614.12514616551,-15020.595791410899,-10639.810340381902,-25645.676332196756,-15797.654187399648,0.014,0.996,0.06,192.0,0.0,112.0,31.0,32.0,1.0,224.0,0.0,0.0,0.0,1675725319.106201,0.0
314,58.0,51246.693878971804,61674.54262668403,-33302.668726762386,-19560.816235639602,-14940.822415449908,-10554.739600985004,-25567.691095792186,-15717.322017827275,0.014,0.996,0.06,192.0,0.0,0.0,0.0,0.0,0.0,0.0,0.0,0.0,0.0,1675725319.106227,0.0
315,59.0,51299.57810635306,61780.75811633565,-31623.1139449017,-19591.572236010103,-14852.309507406891,-10391.124831572155,-25123.45017474296,-15530.416730691997,0.014,0.996,0.06,192.0,0.0,0.0,0.0,0.0,0.0,0.0,0.0,0.0,0.0,1675725319.106253,0.0
316,60.0,51270.274969372156,61800.31589273404,-27960.601801943994,-19646.17754771442,-14920.23645880657,-10443.87494848668,-25112.8777996156,-15568.012364865825,0.014,0.996,0.06,192.0,0.0,0.0,0.0,0.0,0.0,0.0,0.0,0.0,0.0,1675725319.106279,0.0
317,61.0,51203.53266042861,61685.96436810069,-29313.172914167993,-19624.87633524851,-15020.908715833273,-10633.216575767587,-25589.506398380567,-15781.31506220282,0.014,0.996,0.06,192.0,0.0,0.0,0.0,0.0,0.0,0.0,0.0,0.0,0.0,1675725319.106305,0.0
318,62.0,51225.90675662837,61668.88763533684,-32929.32753912539,-19566.985317109265,-14952.735895244587,-10588.267217667964,-25619.77066037305,-15748.279183897876,0.014,0.996,0.06,192.0,0.0,0.0,0.0,0.0,0.0,0.0,0.0,0.0,0.0,1675725319.106331,0.0
319,63.0,51285.74237653523,61772.331508676,-32158.482928095214,-19580.26225331572,-14864.312394179393,-10417.96927666298,-25195.914530267066,-15562.245614796355,0.014,0.996,0.06,192.0,0.0,0.0,0.0,0.0,0.0,0.0,0.0,0.0,0.0,1675725319.106357,0.0
320,64.0,51275.773498508155,61821.30418077757,-28303.65637584405,-19643.40593140196,-14912.770976158497,-10418.282201085354,-25081.04891551124,-15550.086265812668,0.014,0.996,0.06,192.0,0.0,0.0,0.0,0.0,0.0,0.0,0.0,0.0,0.0,1675725319.165453,0.0
321,65.0,51201.118672027435,61706.50562125512,-28676.885804758767,-19645.149367469476,-15012.437404684712,-10611.803604579402,-25531.660083730232,-15762.651355582639,0.014,0.996,0.06,192.0,0.0,0.0,0.0,0.0,0.0,0.0,0.0,0.0,0.0,1675725319.165466,0.0
322,66.0,51213.836814622504,61661.73507711114,-32487.23238554387,-19581.469247516306,-14981.837866525397,-10610.90953480119,-25676.521739545078,-15777.336451689775,0.014,0.996,0.06,192.0,0.0,0.0,0.0,0.0,0.0,0.0,0.0,0.0,0.0,1675725319.165473,0.0
323,67.0,51272.554847306594,61748.99628746466,-32684.263012917403,-19582.16215159442,-14884.227798489072,-10443.651431042128,-25285.545025532847,-15597.18139138,0.01,0.984,0.066,192.0,0.0,80.0,30.0,192.0,2.0,16.0,0.0,0.0,0.0,1675725319.16548,0.0
324,68.0,51283.97658872326,61823.67346568984,-28810.973919746153,-19642.288344179196,-14900.589275430355,-10398.836183409237,-25052.8633657531,-15527.890983568548,0.01,0.984,0.066,192.0,0.0,0.0,0.0,0.0,0.0,0.0,0.0,0.0,0.0,1675725319.165486,0.0
325,69.0,51219.357695502964,61733.864156468415,-28158.52649909574,-19654.201823973875,-15013.599695396388,-10584.981511233034,-25447.55046934491,-15725.100424897722,0.01,0.984,0.066,192.0,0.0,0.0,0.0,0.0,0.0,0.0,0.0,0.0,0.0,1675725319.165493,0.0
326,70.0,51212.62982042191,61665.289004479535,-31918.782820556502,-19595.819067456614,-15008.101166260383,-10631.160215277698,-25697.93471073326,-15795.84369609877,0.01,0.984,0.066,192.0,0.0,0.0,0.0,0.0,0.0,0.0,0.0,0.0,0.0,1675725319.165499,0.0
327,71.0,51265.491696058714,61734.981743691176,-33015.91819714525,-19583.458552772827,-14902.444470220145,-10479.660091359627,-25368.35823873976,-15634.844080787192,0.01,0.984,0.066,192.0,0.0,0.0,0.0,0.0,0.0,0.0,0.0,0.0,0.0,1675725319.165505,0.0
328,72.0,51292.64906557192,61827.33915178051,-29437.135688917126,-19637.281553421206,-14872.493132650035,-10391.683625183538,-25042.693322025934,-15522.571268388185,0.01,0.984,0.066,192.0,0.0,0.0,0.0,0.0,0.0,0.0,0.0,0.0,0.0,1675725319.165512,0.0
329,73.0,51235.54035848861,61766.27418592861,-27807.067669280492,-19663.477797922827,-14973.880645499308,-10555.9912986745,-25353.382569954705,-15692.444526248519,0.01,0.984,0.066,192.0,0.0,0.0,0.0,0.0,0.0,0.0,0.0,0.0,0.0,1675725319.165518,0.0
330,74.0,51197.74355861468,61665.356059712896,-31252.61142881053,-19616.852058989058,-15005.553067392477,-10649.801570153424,-25700.97454797918,-15814.216830041032,0.01,0.984,0.066,192.0,0.0,0.0,0.0,0.0,0.0,0.0,0.0,0.0,0.0,1675725319.165525,0.0
331,75.0,51251.030117396134,61714.418138792294,-33221.218969967245,-19584.889064417966,-14910.602856946332,-10511.287809763886,-25447.908097256197,-15675.188979529023,0.01,0.984,0.066,192.0,0.0,0.0,0.0,0.0,0.0,0.0,0.0,0.0,0.0,1675725319.165531,0.0
332,76.0,51285.94354223532,61815.872706874936,-30147.250610262232,-19631.60421032956,-14865.541740124434,-10385.447488480508,-25059.568889089693,-15527.466300423897,0.01,0.984,0.066,192.0,0.0,0.0,0.0,0.0,0.0,0.0,0.0,0.0,0.0,1675725319.165538,0.0
333,77.0,51235.98739337771,61781.339261691486,-27645.732777802084,-19671.144446271,-14967.845674496375,-10518.529774967406,-25274.369153305193,-15658.134598509623,0.018000000000000002,0.988,0.068,192.0,0.0,144.0,30.0,224.0,2.0,32.0,0.0,0.0,0.0,1675725319.165544,0.0
334,78.0,51199.59875340447,61681.40461223181,-30565.80937693231,-19619.26604739023,-15021.243992000103,-10648.572224208383,-25681.729696003164,-15810.0817573168,0.018000000000000002,0.988,0.068,192.0,0.0,0.0,0.0,0.0,0.0,0.0,0.0,0.0,0.0,1675725319.165551,0.0
335,79.0,51239.85424516848,61705.03040612107,-33279.087636362034,-19573.0202881122,-14942.387037561779,-10539.875690922225,-25518.38314752378,-15700.625264719161,0.018000000000000002,0.988,0.068,192.0,0.0,0.0,0.0,0.0,0.0,0.0,0.0,0.0,0.0,1675725319.224466,0.0
336,80.0,51282.00963521119,61807.31198874855,-30911.434401444723,-19616.896762477965,-14886.910007823708,-10393.807040906793,-25102.216017510418,-15535.423521449986,0.018000000000000002,0.988,0.068,192.0,0.0,0.0,0.0,0.0,0.0,0.0,0.0,0.0,0.0,1675725319.224479,0.0
337,81.0,51251.63361449643,61806.55202943707,-27726.087299118914,-19667.814036347158,-14953.67466851171,-10479.101297748244,-25200.47428613595,-15620.04722595778,0.018000000000000002,0.988,0.068,192.0,0.0,0.0,0.0,0.0,0.0,0.0,0.0,0.0,0.0,1675725319.224485,0.0
338,82.0,51200.51517492714,61692.66989143728,-29897.02283108507,-19635.158137697952,-15018.941762321207,-10642.269032271986,-25650.973695632663,-15810.908771861647,0.018000000000000002,0.988,0.068,192.0,0.0,0.0,0.0,0.0,0.0,0.0,0.0,0.0,0.0,1675725319.224491,0.0
339,83.0,51232.858149153966,61693.85453389341,-33201.8847110134,-19583.190331839363,-14939.503662527046,-10574.029156449933,-25587.003003001573,-15738.466768081997,0.018000000000000002,0.988,0.068,192.0,0.0,0.0,0.0,0.0,0.0,0.0,0.0,0.0,0.0,1675725319.224497,0.0
340,84.0,51283.618960811975,61796.359633965454,-31680.13324500719,-19609.69950076336,-14868.492170392534,-10412.53780276034,-25154.586154769204,-15557.708210671928,0.018000000000000002,0.988,0.068,192.0,0.0,0.0,0.0,0.0,0.0,0.0,0.0,0.0,0.0,1675725319.224503,0.0
341,85.0,51262.34010009052,61821.41593949985,-28031.568590589595,-19672.820827105144,-14934.519223513511,-10452.59212882425,-25131.385044024595,-15589.537094776286,0.018000000000000002,0.988,0.068,192.0,0.0,0.0,0.0,0.0,0.0,0.0,0.0,0.0,0.0,1675725319.224509,0.0
342,86.0,51198.548221415076,61709.00901663411,-29273.342105548636,-19659.946222298888,-15033.358637494879,-10639.564471192894,-25597.73184034012,-15800.962245579034,0.018000000000000002,0.988,0.068,192.0,0.0,0.0,0.0,0.0,0.0,0.0,0.0,0.0,0.0,1675725319.224521,0.0
343,87.0,51215.580250690015,61680.21996977568,-32963.65981860874,-19600.26706460322,-14979.62504382432,-10602.90761028619,-25651.800710177507,-15778.968129035013,0.024,0.98,0.066,192.0,0.0,192.0,30.0,160.0,2.0,16.0,0.0,0.0,0.0,1675725319.224527,0.0
344,88.0,51274.09711767401,61775.2819389441,-32360.900325882474,-19608.425451329407,-14872.403725672213,-10430.843881469236,-25221.104946268195,-15585.737298218883,0.024,0.98,0.066,192.0,0.0,0.0,0.0,0.0,0.0,0.0,0.0,0.0,0.0,1675725319.224533,0.0
345,89.0,51268.88916121593,61832.88238440543,-28509.73945972198,-19662.181396744418,-14908.43473773417,-10418.125738874167,-25080.780694577777,-15555.048353081746,0.024,0.98,0.066,192.0,0.0,0.0,0.0,0.0,0.0,0.0,0.0,0.0,0.0,1675725319.224539,0.0
346,90.0,51198.257648737155,61722.35300807393,-28757.150919097774,-19663.969536300843,-15025.982561824629,-10614.642276125227,-25521.825316169896,-15768.485160885473,0.024,0.98,0.066,192.0,0.0,0.0,0.0,0.0,0.0,0.0,0.0,0.0,0.0,1675725319.224545,0.0
347,91.0,51204.51613718464,61668.977042314655,-32606.635404424123,-19597.137820379474,-14992.522000375033,-10621.168985506176,-25687.004707694618,-15792.401527452652,0.024,0.98,0.066,192.0,0.0,0.0,0.0,0.0,0.0,0.0,0.0,0.0,0.0,1675725319.224551,0.0
348,92.0,51264.95525419179,61756.35001139045,-32972.57816464641,-19588.10771561953,-14885.166571756194,-10450.78163752337,-25303.471124586,-15608.51372581884,0.024,0.98,0.066,192.0,0.0,0.0,0.0,0.0,0.0,0.0,0.0,0.0,0.0,1675725319.224557,0.0
349,93.0,51275.639388041425,61837.688009463316,-29168.221851375325,-19649.37384717153,-14894.286083493958,-10395.952808374503,-25059.09950245613,-15535.35646621662,0.024,0.98,0.066,192.0,0.0,0.0,0.0,0.0,0.0,0.0,0.0,0.0,0.0,1675725319.224564,0.0
350,94.0,51208.62885816442,61750.0244677096,-28382.71449598247,-19672.284385238218,-15012.21388724016,-10584.176848432642,-25446.678751311156,-15736.991552947946,0.024,0.98,0.066,192.0,0.0,0.0,0.0,0.0,0.0,0.0,0.0,0.0,0.0,1675725319.284802,0.0
351,95.0,51201.29748598307,61675.92843484026,-32113.466514762225,-19605.36326233903,-15009.062291271961,-10639.497415959528,-25705.601359081433,-15810.819364883826,0.024,0.98,0.066,192.0,0.0,0.0,0.0,0.0,0.0,0.0,0.0,0.0,0.0,1675725319.284814,0.0
352,96.0,51267.950387948804,61747.74458977516,-33382.68797191238,-19581.06691611611,-14896.655368406222,-10479.704794848538,-25379.10942782276,-15641.661362846062,0.032,0.982,0.07,192.0,1.0,0.0,30.0,176.0,2.0,48.0,0.0,0.0,0.0,1675725319.284821,0.0
353,97.0,51295.778309795656,61841.599564742995,-29896.39698224032,-19635.381655142504,-14870.772048326977,-10381.066546567268,-25044.928496471464,-15522.079530010169,0.032,0.982,0.07,192.0,0.0,0.0,0.0,0.0,0.0,0.0,0.0,0.0,0.0,1675725319.284827,0.0
354,98.0,51237.552015489586,61782.76977333663,-28133.917228450446,-19667.054077035675,-14981.189665936194,-10545.128350869221,-25343.30193320536,-15689.851723891703,0.032,0.982,0.07,192.0,0.0,0.0,0.0,0.0,0.0,0.0,0.0,0.0,0.0,1675725319.284833,0.0
355,99.0,51208.1371197864,61685.40557448931,-31517.010213972357,-19614.371015354518,-15011.431576184223,-10645.063000328899,-25699.11935318939,-15813.278056773908,0.032,0.982,0.07,192.0,0.0,0.0,0.0,0.0,0.0,0.0,0.0,0.0,0.0,1675725319.284839,0.0
356,100.0,51251.90183542989,61723.6717609968,-33619.57175964973,-19587.794791197157,-14928.730121699587,-10515.981676099502,-25469.164606233193,-15681.648633676605,0.032,0.982,0.07,192.0,0.0,0.0,0.0,0.0,0.0,0.0,0.0,0.0,0.0,1675725319.284845,0.0
357,101.0,51291.88910626044,61822.82409940054,-30679.423293998636,-19631.626562074016,-14880.003318787018,-10385.29102626932,-25077.427932909482,-15529.366198702599,0.032,0.982,0.07,192.0,0.0,0.0,0.0,0.0,0.0,0.0,0.0,0.0,0.0,1675725319.284851,0.0
358,102.0,51241.597681235995,61793.09627927498,-28048.73473033127,-19677.0453068072,-14975.758192033552,-10514.84173713228,-25270.39054279215,-15656.704086864484,0.032,0.982,0.07,192.0,0.0,0.0,0.0,0.0,0.0,0.0,0.0,0.0,0.0,1675725319.284856,0.0
359,103.0,51199.151718515364,61686.321996011975,-30841.09346164387,-19628.430262616905,-15022.182765267225,-10651.187378309653,-25684.99305069364,-15818.150737065165,0.032,0.982,0.07,192.0,0.0,0.0,0.0,0.0,0.0,0.0,0.0,0.0,0.0,1675725319.284862,0.0
360,104.0,51251.67831798534,61716.98858940466,-33665.683408461024,-19575.121352091,-14928.86423216632,-10539.629821733215,-25531.19069709667,-15708.046043878323,0.032,0.982,0.07,192.0,0.0,0.0,0.0,0.0,0.0,0.0,0.0,0.0,0.0,1675725319.284868,0.0
361,105.0,51297.67820807436,61820.63362844392,-31430.665425141506,-19612.582875798093,-14860.42319064417,-10387.1015175702,-25107.58043617969,-15533.45656793792,0.032,0.982,0.07,192.0,0.0,0.0,0.0,0.0,0.0,0.0,0.0,0.0,0.0,1675725319.284874,0.0
362,106.0,51260.66371925637,61820.208945299266,-28145.361321611563,-19673.60313816108,-14943.616383506822,-10472.686347089571,-25186.95148074049,-15611.933542720502,0.036000000000000004,0.976,0.07,192.0,1.0,32.0,30.0,128.0,2.0,48.0,0.0,0.0,0.0,1675725319.28488,0.0
363,107.0,51210.640515165396,61711.847688179936,-30145.842450361546,-19637.0356842322,-15020.841660599908,-10640.793817137936,-25642.725901928654,-15804.627931669706,0.036000000000000004,0.976,0.07,192.0,0.0,0.0,0.0,0.0,0.0,0.0,0.0,0.0,0.0,1675725319.284893,0.0
364,108.0,51247.38678304992,61713.41231029181,-33508.34947924012,-19578.474113759294,-14940.308325327436,-10566.966005202057,-25595.697831594687,-15736.231593636465,0.036000000000000004,0.976,0.07,192.0,0.0,0.0,0.0,0.0,0.0,0.0,0.0,0.0,0.0,1675725319.284899,0.0
365,109.0,51299.53340286415,61813.43636672931,-32106.001032114153,-19603.284550104687,-14866.189940713639,-10399.037349109334,-25163.906832207067,-15549.683934412473,0.036000000000000004,0.976,0.07,192.0,0.0,0.0,0.0,0.0,0.0,0.0,0.0,0.0,0.0,1675725319.348209,0.0
366,110.0,51279.282722387645,61843.18653859932,-28402.406382847596,-19658.471007164837,-14930.607668233833,-10429.748645990927,-25124.97009336592,-15567.632385210085,0.036000000000000004,0.976,0.07,192.0,0.0,0.0,0.0,0.0,0.0,0.0,0.0,0.0,0.0,1675725319.348222,0.0
367,111.0,51212.04867506608,61727.94094418776,-29482.330916205756,-19640.768425556234,-15029.491785704111,-10622.867718084779,-25585.05840123396,-15777.112934245222,0.036000000000000004,0.976,0.07,192.0,0.0,0.0,0.0,0.0,0.0,0.0,0.0,0.0,0.0,1675725319.348229,0.0
368,112.0,51231.449989253284,61699.397766518334,-33166.613658262926,-19578.38470678147,-14975.087639699894,-10592.46934562556,-25652.605372977898,-15759.008021236423,0.036000000000000004,0.976,0.07,192.0,0.0,0.0,0.0,0.0,0.0,0.0,0.0,0.0,0.0,1675725319.348235,0.0
369,113.0,51291.26325741569,61791.688119374296,-32703.865492804707,-19593.0250993997,-14869.788571570942,-10420.96441041999,-25235.141841786128,-15574.784943435783,0.036000000000000004,0.976,0.07,192.0,0.0,0.0,0.0,0.0,0.0,0.0,0.0,0.0,0.0,1675725319.348241,0.0
370,114.0,51285.831783513044,61842.42657928784,-28847.384911463847,-19659.298021709685,-14904.701996410133,-10405.742872445926,-25079.86427305511,-15548.521643700797,0.036000000000000004,0.976,0.07,192.0,0.0,0.0,0.0,0.0,0.0,0.0,0.0,0.0,0.0,1675725319.348248,0.0
371,115.0,51214.01562857815,61737.21691813671,-28930.73456653769,-19654.984135029812,-15018.718244876653,-10590.502392113494,-25512.392880009756,-15756.951660746536,0.036000000000000004,0.976,0.07,192.0,0.0,0.0,0.0,0.0,0.0,0.0,0.0,0.0,0.0,1675725319.348254,0.0
372,116.0,51211.959268088256,61676.26371100709,-32725.27846399289,-19598.21070411333,-14990.398584651779,-10613.569392391371,-25691.251539141125,-15792.446230941563,0.026000000000000002,0.978,0.068,192.0,0.0,208.0,30.0,144.0,2.0,32.0,0.0,0.0,0.0,1675725319.34826,0.0
373,117.0,51276.980492708746,61760.775656792604,-33191.75937077515,-19586.744259207757,-14884.630129889267,-10451.16161717911,-25312.814153768322,-15611.397100853575,0.026000000000000002,0.978,0.068,192.0,0.0,0.0,0.0,0.0,0.0,0.0,0.0,0.0,0.0,1675725319.348266,0.0
374,118.0,51286.79290852463,61838.67148621935,-29422.361185832167,-19642.623620346025,-14890.6651008922,-10381.737098900927,-25049.24238315134,-15523.554745144218,0.026000000000000002,0.978,0.068,192.0,0.0,0.0,0.0,0.0,0.0,0.0,0.0,0.0,0.0,1675725319.348272,0.0
375,119.0,51220.16235830336,61755.4782933567,-28479.229328540485,-19661.22027173284,-15011.453927928678,-10563.94851970059,-25424.014082433474,-15717.299666082821,0.026000000000000002,0.978,0.068,192.0,0.0,0.0,0.0,0.0,0.0,0.0,0.0,0.0,0.0,1675725319.348278,0.0
376,120.0,51198.07883478151,61670.653423148804,-32167.960067744265,-19608.78307924069,-15022.540393178511,-10632.702485645115,-25715.167905708302,-15811.869896873224,0.026000000000000002,0.978,0.068,192.0,0.0,0.0,0.0,0.0,0.0,0.0,0.0,0.0,0.0,1675725319.348284,0.0
377,121.0,51257.735640732724,61738.267450126106,-33569.79442474776,-19586.364279552017,-14906.870115622296,-10476.240274457965,-25398.711907710065,-15648.702162349484,0.026000000000000002,0.978,0.068,192.0,0.0,0.0,0.0,0.0,0.0,0.0,0.0,0.0,0.0,1675725319.348291,0.0
378,122.0,51282.76959452267,61834.737579195214,-30140.8133078591,-19630.061939962143,-14890.553342169922,-10369.689508639516,-25057.400769877528,-15518.100919497123,0.026000000000000002,0.978,0.068,192.0,0.0,0.0,0.0,0.0,0.0,0.0,0.0,0.0,0.0,1675725319.348297,0.0
379,123.0,51222.933974615815,61778.32177619002,-28248.55932576172,-19659.633297876513,-15007.095337759894,-10528.185728572098,-25342.564325638334,-15676.686546407527,0.026000000000000002,0.978,0.068,192.0,0.0,0.0,0.0,0.0,0.0,0.0,0.0,0.0,0.0,1675725319.348303,0.0
380,124.0,51187.14883174287,61674.386164472846,-31553.06357777877,-19611.867619975525,-15043.97571611115,-10637.776331636469,-25712.95508300723,-15810.37232999472,0.026000000000000002,0.978,0.068,192.0,0.0,0.0,0.0,0.0,0.0,0.0,0.0,0.0,0.0,1675725319.405403,0.0
381,125.0,51241.463570769265,61716.943885915745,-33793.624793723204,-19576.14953233594,-14936.620287492311,-10512.40539698665,-25489.32587973188,-15680.016956331368,0.026000000000000002,0.978,0.068,192.0,0.0,0.0,0.0,0.0,0.0,0.0,0.0,0.0,0.0,1675725319.405415,0.0
382,126.0,51285.496507346215,61821.97473311124,-30966.397341060325,-19616.181506655397,-14871.375545427269,-10376.216218020465,-25084.602842879634,-15520.537259642751,0.022,0.984,0.064,192.0,0.0,176.0,30.0,192.0,2.0,0.0,0.0,0.0,0.0,1675725319.405422,0.0
383,127.0,51245.017498137655,61797.61133165495,-28230.00737786381,-19659.633297876513,-14962.011869193539,-10494.099318277755,-25253.649086195124,-15632.966534252946,0.022,0.984,0.064,192.0,0.0,0.0,0.0,0.0,0.0,0.0,0.0,0.0,0.0,1675725319.405429,0.0
384,128.0,51200.828099349514,61686.99254834564,-30927.617064430367,-19615.063919432632,-15020.416977455257,-10637.441055469639,-25681.41677158079,-15801.811611868336,0.022,0.984,0.064,192.0,0.0,0.0,0.0,0.0,0.0,0.0,0.0,0.0,0.0,1675725319.405442,0.0
385,129.0,51237.23909106721,61701.65529270832,-33843.268018158444,-19569.53341597717,-14942.05176139495,-10539.540414755395,-25550.59201128388,-15705.475593265963,0.022,0.984,0.064,192.0,0.0,0.0,0.0,0.0,0.0,0.0,0.0,0.0,0.0,1675725319.405448,1.0
386,130.0,51286.971722480266,61807.22258177073,-31753.692836009603,-19595.707308734334,-14873.431905917158,-10379.85955236668,-25120.34328226367,-15524.02413177778,0.022,0.984,0.064,192.0,0.0,0.0,0.0,0.0,0.0,0.0,0.0,0.0,0.0,1675725319.405454,1.0
387,131.0,51255.9475011763,61810.351825994476,-28406.273234638364,-19651.631373361513,-14960.24608138157,-10452.323907890786,-25182.257614404873,-15591.414641310532,0.022,0.984,0.064,192.0,0.0,0.0,0.0,0.0,0.0,0.0,0.0,0.0,0.0,1675725319.40546,1.0
388,132.0,51201.677465638815,61696.08970833894,-30296.314394034674,-19623.289361392184,-15042.902832377296,-10624.208822752098,-25641.16127981678,-15788.087640772777,0.022,0.984,0.064,192.0,0.0,0.0,0.0,0.0,0.0,0.0,0.0,0.0,0.0,1675725319.405466,1.0
389,133.0,51233.1934253208,61690.6135309474,-33726.323691168276,-19565.465398486307,-14967.175122162715,-10558.204121375577,-25613.154544014284,-15729.34725634423,0.022,0.984,0.064,192.0,0.0,0.0,0.0,0.0,0.0,0.0,0.0,0.0,0.0,1675725319.405472,1.0
390,134.0,51289.22924867025,61795.95730256526,-32476.39178948305,-19584.263215573217,-14870.101495993316,-10392.108308328188,-25174.97094571244,-15543.067818053702,0.022,0.984,0.064,192.0,0.0,0.0,0.0,0.0,0.0,0.0,0.0,0.0,0.0,1675725319.405478,1.0
391,135.0,51268.39742283791,61830.758968682174,-28732.54164845248,-19648.613887860047,-14926.874926909797,-10420.87500344217,-25111.715508903922,-15561.642117696061,0.022,0.984,0.064,192.0,0.0,0.0,0.0,0.0,0.0,0.0,0.0,0.0,0.0,1675725319.405484,1.0
392,136.0,51195.35192195796,61709.99249339015,-29652.15947057718,-19644.635277347003,-15035.683218918231,-10619.514956416484,-25578.151712197272,-15779.795143579859,0.018000000000000002,0.98,0.07200000000000001,192.0,0.0,144.0,30.0,160.0,2.0,64.0,0.0,0.0,0.0,1675725319.40549,1.0
393,137.0,51210.618163420935,61675.146123784325,-33375.33424798659,-19583.615014984014,-14992.790221308498,-10594.771575304458,-25663.13304461635,-15766.115875973212,0.018000000000000002,0.98,0.07200000000000001,192.0,0.0,0.0,0.0,0.0,0.0,0.0,0.0,0.0,0.0,1675725319.405496,1.0
394,138.0,51273.49362057372,61772.71148833174,-33061.85103200091,-19578.988203881767,-14890.530990425468,-10420.96441041999,-25250.117510571185,-15574.583777735685,0.018000000000000002,0.98,0.07200000000000001,192.0,0.0,0.0,0.0,0.0,0.0,0.0,0.0,0.0,0.0,1675725319.405503,1.0
395,139.0,51273.62773104045,61834.84933791749,-29176.3355346126,-19639.31556216664,-14916.19079306016,-10393.829392651247,-25071.504720628825,-15531.579021403673,0.018000000000000002,0.98,0.07200000000000001,192.0,0.0,0.0,0.0,0.0,0.0,0.0,0.0,0.0,0.0,1675725319.457518,1.0
396,140.0,51203.845584850984,61734.26648786861,-29060.866422756484,-19650.960821027857,-15029.78235838203,-10593.586932848328,-25503.698051416643,-15746.245175152442,0.018000000000000002,0.98,0.07200000000000001,192.0,0.0,0.0,0.0,0.0,0.0,0.0,0.0,0.0,0.0,1675725319.457561,0.0
397,141.0,51203.55501217306,61672.86624584988,-32863.144023793226,-19591.54988426565,-15005.217791225648,-10616.899802315213,-25698.225283411182,-15786.210094238531,0.018000000000000002,0.98,0.07200000000000001,192.0,0.0,0.0,0.0,0.0,0.0,0.0,0.0,0.0,0.0,1675725319.457591,0.0
398,142.0,51261.602492523496,61749.55508107604,-33457.99099898231,-19577.53534049217,-14910.602856946332,-10456.458980615018,-25332.751909822455,-15612.492336331885,0.018000000000000002,0.98,0.07200000000000001,192.0,0.0,0.0,0.0,0.0,0.0,0.0,0.0,0.0,0.0,1675725319.457617,0.0
399,143.0,51280.95910322179,61833.552936739085,-29687.58698553884,-19635.918097009435,-14912.659217436221,-10390.476630982952,-25063.14516820254,-15526.706341112416,0.018000000000000002,0.98,0.07200000000000001,192.0,0.0,0.0,0.0,0.0,0.0,0.0,0.0,0.0,0.0,1675725319.457644,0.0
400,144.0,51221.79403564859,61760.26156667013,-28566.423483660637,-19649.038571004698,-15020.97577106664,-10567.725964513536,-25421.68950101012,-15710.527087512863,0.018000000000000002,0.98,0.07200000000000001,192.0,0.0,0.0,0.0,0.0,0.0,0.0,0.0,0.0,0.0,1675725319.45767,0.0
401,145.0,51213.12155879993,61684.220932033175,-32188.45661740978,-19584.084401617576,-15021.422805955746,-10631.29432574443,-25706.450725370734,-15792.55798966384,0.018000000000000002,0.98,0.07200000000000001,192.0,0.0,0.0,0.0,0.0,0.0,0.0,0.0,0.0,0.0,1675725319.457696,0.0
402,146.0,51273.18069615134,61746.85051999695,-33716.57833058576,-19559.58688969456,-14908.546496456445,-10483.392832683663,-25406.82559094734,-15638.040380244302,0.014,0.976,0.06,192.0,0.0,112.0,30.0,128.0,1.0,224.0,0.0,0.0,0.0,1675725319.457722,0.0
403,147.0,51298.013484241186,61838.738541452716,-30351.143223183542,-19615.309788621642,-14879.980967042562,-10375.188037775522,-25053.824490764677,-15512.043596749736,0.014,0.976,0.06,192.0,0.0,0.0,0.0,0.0,0.0,0.0,0.0,0.0,0.0,1675725319.457748,0.0
404,148.0,51237.14968408939,61785.42963092681,-28271.626326039594,-19655.252355963275,-14995.383023665312,-10530.331496039807,-25327.54395336437,-15672.126790538645,0.014,0.976,0.06,192.0,0.0,0.0,0.0,0.0,0.0,0.0,0.0,0.0,0.0,1675725319.457774,0.0
405,149.0,51196.223639991724,61678.45418196371,-31453.687721930473,-19606.97258793981,-15036.063198573971,-10645.800607895924,-25709.512914361112,-15810.931123606102,0.014,0.976,0.06,192.0,0.0,0.0,0.0,0.0,0.0,0.0,0.0,0.0,0.0,1675725319.473544,0.0
406,150.0,51253.53351277513,61721.68245574027,-33764.63458116467,-19564.77249440819,-14940.107159627338,-10516.965152855535,-25492.3657169778,-15679.05583131979,0.014,0.976,0.06,192.0,0.0,0.0,0.0,0.0,0.0,0.0,0.0,0.0,0.0,1675725319.502518,0.0
407,151.0,51298.840498786034,61828.300276792084,-30968.677218994766,-19609.140707151975,-14879.645690875734,-10382.251189023398,-25085.83218882468,-15523.197117232934,0.014,0.976,0.06,192.0,0.0,0.0,0.0,0.0,0.0,0.0,0.0,0.0,0.0,1675725319.502531,0.0
408,152.0,51256.43923955432,61806.55202943707,-28089.392553495476,-19660.41560893245,-14973.76888677703,-10493.652283388648,-25252.46444373899,-15639.448540144986,0.014,0.976,0.06,192.0,0.0,0.0,0.0,0.0,0.0,0.0,0.0,0.0,0.0,1675725319.502539,0.0
409,153.0,51211.400474476875,61690.56882745848,-30652.5341454189,-19620.942428224378,-15027.725997892143,-10647.834616641358,-25685.887120471853,-15811.422861984118,0.014,0.976,0.06,192.0,0.0,0.0,0.0,0.0,0.0,0.0,0.0,0.0,0.0,1675725319.502547,0.0
410,154.0,51245.576291749036,61702.79523167554,-33637.117879047146,-19570.114561333008,-14954.34522084537,-10556.415981819151,-25576.654145318767,-15720.339503328742,0.014,0.976,0.06,192.0,0.0,0.0,0.0,0.0,0.0,0.0,0.0,0.0,0.0,1675725319.502555,0.0
411,155.0,51302.03679824314,61815.89505861939,-31643.901067245137,-19590.20877959833,-14881.18796124315,-10394.499944984907,-25143.522041263826,-15536.831681350672,0.008,0.978,0.056,192.0,0.0,64.0,30.0,144.0,1.0,192.0,0.0,0.0,0.0,1675725319.559052,0.0
412,156.0,51266.31871060356,61820.23129704372,-28174.19507195891,-19650.446730905383,-14963.665898283232,-10465.377326652686,-25185.766838284355,-15601.60703678215,0.008,0.978,0.056,192.0,0.0,0.0,0.0,0.0,0.0,0.0,0.0,0.0,0.0,1675725319.559064,0.0
413,157.0,51211.892212854895,61709.03136837857,-29915.172447582776,-19617.343797367073,-15038.656000930787,-10633.194224023131,-25642.010646106082,-15794.79316410937,0.008,0.978,0.056,192.0,0.0,0.0,0.0,0.0,0.0,0.0,0.0,0.0,0.0,1675725319.559071,0.0
414,158.0,51240.03305912412,61696.20146706122,-33403.98918437829,-19561.039753084155,-14965.565796561934,-10575.303205883885,-25628.085509310426,-15743.250041395431,0.008,0.978,0.056,192.0,0.0,0.0,0.0,0.0,0.0,0.0,0.0,0.0,0.0,1675725319.559077,0.0
415,159.0,51289.542173092625,61788.93885480629,-32274.82375798509,-19586.9230731634,-14884.339557211348,-10411.844898682226,-25198.261463434872,-15560.680992684483,0.008,0.978,0.056,192.0,0.0,0.0,0.0,0.0,0.0,0.0,0.0,0.0,0.0,1675725319.559083,0.0
416,160.0,51269.71617576077,61822.10884357797,-28467.87464235719,-19651.117283239044,-14943.437569551179,-10427.357009334208,-25125.01479685483,-15566.447742753953,0.008,0.978,0.056,192.0,0.0,0.0,0.0,0.0,0.0,0.0,0.0,0.0,0.0,1675725319.559089,0.0
417,161.0,51206.99718081918,61711.44535677974,-29262.41210250999,-19637.303905165663,-15043.5510329665,-10615.983380792544,-25586.645375090287,-15776.59884412275,0.008,0.978,0.056,192.0,0.0,0.0,0.0,0.0,0.0,0.0,0.0,0.0,0.0,1675725319.559096,0.0
418,162.0,51218.82125363604,61667.88180683635,-33038.94049393421,-19577.53534049217,-14993.907808531263,-10602.751148075004,-25685.84241698294,-15773.961338277024,0.008,0.978,0.056,192.0,0.0,0.0,0.0,0.0,0.0,0.0,0.0,0.0,0.0,1675725319.559102,0.0
419,163.0,51280.69088228833,61759.4792556142,-32853.912753333185,-19581.73746844977,-14889.882789836263,-10433.30257335932,-25274.927946916574,-15587.123106375111,0.008,0.978,0.056,192.0,0.0,0.0,0.0,0.0,0.0,0.0,0.0,0.0,0.0,1675725319.559108,0.0
420,164.0,51287.50816434719,61828.47909074773,-28987.86562536545,-19635.918097009435,-14904.94786559914,-10399.573790976261,-25081.47359865589,-15535.602335405629,0.008,0.978,0.056,192.0,0.0,0.0,0.0,0.0,0.0,0.0,0.0,0.0,0.0,1675725319.559114,0.0
421,165.0,51215.80376813457,61728.611496521415,-28733.0333868305,-19643.54004186869,-15016.617180897854,-10594.995092749012,-25499.741792648056,-15745.440512352052,0.006,0.984,0.058,192.0,0.0,48.0,30.0,192.0,1.0,208.0,0.0,0.0,0.0,1675725319.55912,0.0
422,166.0,51205.521965685126,61657.7564665981,-32549.97373222992,-19584.64319522896,-15001.73091909062,-10626.443997197628,-25717.268969687102,-15798.190629266577,0.006,0.984,0.058,192.0,0.0,0.0,0.0,0.0,0.0,0.0,0.0,0.0,0.0,1675725319.559127,0.0
423,167.0,51264.53057104714,61733.1712523903,-33344.77941331618,-19576.037773613665,-14906.691301666655,-10462.44924812904,-25363.06087530385,-15623.131766692612,0.006,0.984,0.058,192.0,0.0,0.0,0.0,0.0,0.0,0.0,0.0,0.0,0.0,1675725319.559133,0.0
424,168.0,51286.92701899136,61819.0913580765,-29635.35095874679,-19637.59447784358,-14902.824449875887,-10387.503848970397,-25072.421142151492,-15529.522660913786,0.006,0.984,0.058,192.0,0.0,0.0,0.0,0.0,0.0,0.0,0.0,0.0,0.0,1675725319.559139,0.0
425,169.0,51226.57730896203,61745.531767074084,-28357.03234160332,-19652.03370476171,-15014.270247730048,-10562.629766777727,-25415.766288729465,-15712.62815149166,0.006,0.984,0.058,192.0,0.0,0.0,0.0,0.0,0.0,0.0,0.0,0.0,0.0,1675725319.559145,0.0
426,170.0,51199.79991910457,61654.49311190762,-31959.552402442983,-19598.613035513525,-15023.993256568107,-10639.67622991517,-25729.85300181544,-15813.725091663015,0.006,0.984,0.058,192.0,0.0,0.0,0.0,0.0,0.0,0.0,0.0,0.0,0.0,1675725319.609723,0.0
427,171.0,51256.66275699887,61712.92057191379,-33649.65720768657,-19572.707363689824,-14913.553287214434,-10490.143059509166,-25440.5543733304,-15657.754618853882,0.006,0.984,0.058,192.0,0.0,0.0,0.0,0.0,0.0,0.0,0.0,0.0,0.0,1675725319.609742,0.0
428,172.0,51289.65393181491,61810.26241901665,-30384.49202591086,-19626.26214340474,-14878.259882719503,-10377.154991287589,-25073.91870903,-15522.191288732445,0.006,0.984,0.058,192.0,0.0,0.0,0.0,0.0,0.0,0.0,0.0,0.0,0.0,1675725319.609749,0.0
429,173.0,51240.16716959085,61766.76592430662,-28204.97342407387,-19660.192091487897,-14989.124535217827,-10522.620144202727,-25326.761642308433,-15670.76333412687,0.006,0.984,0.058,192.0,0.0,0.0,0.0,0.0,0.0,0.0,0.0,0.0,0.0,1675725319.609755,0.0
430,174.0,51200.559878416054,61660.796303844014,-31356.14470912751,-19606.816125728623,-15022.629800156332,-10639.117436303788,-25710.876370772883,-15810.55114395036,0.006,0.984,0.058,192.0,0.0,0.0,0.0,0.0,0.0,0.0,0.0,0.0,0.0,1675725319.609761,0.0
431,175.0,51243.18465509232,61693.34044377094,-33806.83467469629,-19572.64030845646,-14928.752473444043,-10521.167280813132,-25510.00124335304,-15687.661252935082,0.004,0.976,0.06,192.0,0.0,32.0,30.0,128.0,1.0,224.0,0.0,0.0,0.0,1675725319.609767,0.0
432,176.0,51288.44693761432,61800.24883750068,-31169.060608036594,-19613.07461417611,-14874.303623950915,-10380.172476789056,-25099.19853200895,-15525.678160867474,0.004,0.976,0.06,192.0,0.0,0.0,0.0,0.0,0.0,0.0,0.0,0.0,0.0,1675725319.609773,0.0
433,177.0,51246.09038187151,61787.061308272045,-28190.221272733364,-19661.913175810954,-14964.179988405704,-10485.963283296023,-25239.679245910556,-15628.09385396169,0.004,0.976,0.06,192.0,0.0,0.0,0.0,0.0,0.0,0.0,0.0,0.0,0.0,1675725319.609779,0.0
434,178.0,51198.32470397052,61676.01784181808,-30635.09978474376,-19616.717948522324,-15027.368369980857,-10637.977497336567,-25682.869634970386,-15803.733861891493,0.004,0.976,0.06,192.0,0.0,0.0,0.0,0.0,0.0,0.0,0.0,0.0,0.0,1675725319.609785,0.0
435,179.0,51239.206044579274,61687.21606579019,-33744.003921032425,-19565.286584530662,-14947.751456231053,-10545.597737502783,-25580.25277617607,-15712.963427658491,0.004,0.976,0.06,192.0,0.0,0.0,0.0,0.0,0.0,0.0,0.0,0.0,0.0,1675725319.609791,0.0
436,180.0,51281.517896833175,61783.19445648128,-31866.74795946455,-19606.749070495258,-14885.412440945202,-10394.276427540353,-25155.88255594761,-15542.441969208952,0.004,0.976,0.06,192.0,0.0,0.0,0.0,0.0,0.0,0.0,0.0,0.0,0.0,1675725319.609797,0.0
437,181.0,51255.232245353734,61801.43347995681,-28352.584344456714,-19661.13086475502,-14959.82139823692,-10451.966279979502,-25181.967041726955,-15591.772269221816,0.004,0.976,0.06,192.0,0.0,0.0,0.0,0.0,0.0,0.0,0.0,0.0,0.0,1675725319.609803,0.0
438,182.0,51197.475337681215,61691.32878676996,-29963.474567350695,-19631.626562074016,-15050.100094091904,-10626.53340417545,-25641.60831470589,-15789.495800673461,0.004,0.976,0.06,192.0,0.0,0.0,0.0,0.0,0.0,0.0,0.0,0.0,0.0,1675725319.609809,0.0
439,183.0,51225.81734965055,61678.141257541334,-33509.35530774061,-19575.277814302186,-14982.754288048065,-10572.486886082517,-25646.3021810415,-15745.30640188532,0.004,0.976,0.06,192.0,0.0,0.0,0.0,0.0,0.0,0.0,0.0,0.0,0.0,1675725319.609816,0.0
440,184.0,51286.50233584671,61777.67357560081,-32547.895019995576,-19593.181561610887,-14881.99262404354,-10406.279314312855,-25216.232265976938,-15559.071667083701,0.004,0.976,0.06,192.0,0.0,0.0,0.0,0.0,0.0,0.0,0.0,0.0,0.0,1675725319.609822,0.0
441,185.0,51276.08642293053,61825.439253501805,-28708.11119176283,-19650.69260009439,-14922.449281507646,-10416.1587853621,-25112.72133740441,-15552.07557106919,0.002,0.982,0.054,192.0,0.0,16.0,30.0,176.0,1.0,176.0,0.0,0.0,0.0,1675725319.659899,0.0
442,186.0,51205.030227307114,61712.20531609122,-29281.6122509971,-19646.065788992142,-15038.253669530592,-10614.66462786968,-25573.659011561755,-15769.446285897051,0.002,0.982,0.054,192.0,0.0,0.0,0.0,0.0,0.0,0.0,0.0,0.0,0.0,1675725319.659911,0.0
443,187.0,51213.03215182211,61666.13837076884,-33064.84616575792,-19585.179637095887,-15002.423823168734,-10609.411967922684,-25700.348699134436,-15778.40933542363,0.002,0.982,0.054,192.0,0.0,0.0,0.0,0.0,0.0,0.0,0.0,0.0,0.0,1675725319.659918,0.0
444,188.0,51275.03589094114,61755.43358986779,-33027.071717628445,-19587.21364584132,-14895.358967227814,-10439.583413551261,-25297.413801838615,-15596.846115213171,0.002,0.982,0.054,192.0,0.0,0.0,0.0,0.0,0.0,0.0,0.0,0.0,0.0,1675725319.659924,0.0
445,189.0,51281.450841599806,61822.086491833514,-29145.7806999422,-19651.117283239044,-14915.631999448777,-10399.909067143091,-25089.766095848812,-15543.98423957637,0.002,0.982,0.054,192.0,0.0,0.0,0.0,0.0,0.0,0.0,0.0,0.0,0.0,1675725319.65993,0.0
446,190.0,51209.500576198174,61728.00799942113,-28705.160761494728,-19662.51667291125,-15042.567556210466,-10593.497525870505,-25503.496885716544,-15753.710657800515,0.002,0.982,0.054,192.0,0.0,0.0,0.0,0.0,0.0,0.0,0.0,0.0,0.0,1675725319.659936,0.0
447,191.0,51201.252782494164,61659.58930964343,-32511.5734352557,-19591.7734017102,-15024.842622857408,-10626.064017541888,-25733.026949528095,-15809.455908472051,0.002,0.982,0.054,192.0,0.0,0.0,0.0,0.0,0.0,0.0,0.0,0.0,0.0,1675725319.659942,0.0
448,192.0,51258.2497308552,61729.12558664389,-33437.42739408343,-19575.948366635843,-14906.579542944377,-10462.717469062503,-25378.26006153346,-15635.291115676298,0.002,0.982,0.054,192.0,0.0,0.0,0.0,0.0,0.0,0.0,0.0,0.0,0.0,1675725319.659955,0.0
449,193.0,51275.46057408579,61812.922276606834,-29761.660666663727,-19634.241716175286,-14895.537781183457,-10374.986872075424,-25067.034371737765,-15525.78991958975,0.002,0.982,0.054,192.0,0.0,0.0,0.0,0.0,0.0,0.0,0.0,0.0,0.0,1675725319.659961,0.0
450,194.0,51211.37812273242,61739.9214792158,-28333.205382013963,-19652.927774539923,-15017.332436720424,-10548.99520265999,-25411.74297472751,-15709.163631101088,0.002,0.982,0.054,192.0,0.0,0.0,0.0,0.0,0.0,0.0,0.0,0.0,0.0,1675725319.659967,0.0
451,195.0,51187.26059046514,61647.519367637564,-31881.231889871586,-19594.366204067017,-15031.525794449544,-10631.517843188984,-25739.62071414241,-15815.133251563699,0.002,0.994,0.052000000000000005,192.0,0.0,16.0,31.0,16.0,1.0,160.0,0.0,0.0,0.0,1675725319.659974,0.0
452,196.0,51245.55394000458,61701.990568875146,-33685.95644068199,-19562.76083740721,-14919.18592681717,-10485.963283296023,-25458.726341572565,-15661.085028777723,0.002,0.994,0.052000000000000005,192.0,0.0,0.0,0.0,0.0,0.0,0.0,0.0,0.0,0.0,1675725319.65998,0.0
453,197.0,51286.39057712443,61808.1390032934,-30483.26438465886,-19609.185410640886,-14874.773010584477,-10364.503903925885,-25074.276336941282,-15516.335131685155,0.002,0.994,0.052000000000000005,192.0,0.0,0.0,0.0,0.0,0.0,0.0,0.0,0.0,0.0,1675725319.659986,0.0
454,198.0,51229.37127701894,61764.01665973863,-28151.463347847864,-19656.70521935287,-14991.560875363455,-10512.852431875757,-25321.084299216785,-15667.72349688095,0.002,0.994,0.052000000000000005,192.0,0.0,0.0,0.0,0.0,0.0,0.0,0.0,0.0,0.0,1675725319.659992,0.0
455,199.0,51189.294599210574,61656.01303053058,-31210.925425401383,-19610.772384497213,-15032.419864227757,-10639.206843281609,-25722.476926145187,-15820.542373721884,0.002,0.994,0.052000000000000005,192.0,0.0,0.0,0.0,0.0,0.0,0.0,0.0,0.0,0.0,1675725319.659998,0.0
456,200.0,51237.66377421186,61688.1101355684,-33793.490683256474,-19570.114561333008,-14943.348162573358,-10520.429673246106,-25539.05851114494,-15703.44158452053,0.002,0.994,0.052000000000000005,192.0,0.0,0.0,0.0,0.0,0.0,0.0,0.0,0.0,0.0,1675725319.710629,0.0
457,201.0,51281.56260032208,61791.24108448519,-31249.124556675502,-19610.68297751939,-14884.920702567186,-10377.378508732141,-25121.7290904199,-15535.22235574989,0.002,0.994,0.052000000000000005,192.0,0.0,0.0,0.0,0.0,0.0,0.0,0.0,0.0,0.0,1675725319.710646,0.0
458,202.0,51251.05246914059,61786.502514660664,-28183.96278428588,-19655.36411468555,-14969.76792451953,-10476.575550624795,-25241.914420356086,-15629.14438595109,0.002,0.994,0.052000000000000005,192.0,0.0,0.0,0.0,0.0,0.0,0.0,0.0,0.0,0.0,1675725319.710656,0.0
459,203.0,51204.672599395824,61675.839027862436,-30534.695748650523,-19622.79762301417,-15042.746370166109,-10638.491587459039,-25692.302071130525,-15817.077853331311,0.002,0.994,0.052000000000000005,192.0,0.0,0.0,0.0,0.0,0.0,0.0,0.0,0.0,0.0,1675725319.710664,0.0
460,204.0,51233.99808812119,61677.69422265223,-33733.163324971596,-19577.267119558706,-14969.186779163692,-10554.605490518272,-25611.746384113598,-15738.891451226647,0.002,0.994,0.052000000000000005,192.0,0.0,0.0,0.0,0.0,0.0,0.0,0.0,0.0,0.0,1675725319.710673,0.0
461,205.0,51278.4557078428,61775.2819389441,-32034.609560323905,-19598.7247942358,-14886.910007823708,-10381.178305289544,-25170.210024143464,-15548.298126256244,0.006,0.99,0.05,192.0,0.0,48.0,30.0,240.0,1.0,144.0,0.0,0.0,0.0,1675725319.710682,0.0
462,206.0,51246.76093420517,61792.5374856636,-28452.094310771743,-19659.16391124295,-14954.904014456752,-10430.30743960231,-25166.924317708534,-15587.480734286397,0.006,0.99,0.05,192.0,0.0,0.0,0.0,0.0,0.0,0.0,0.0,0.0,0.0,1675725319.71069,0.0
463,207.0,51177.09054673798,61671.16751327128,-29893.893586861326,-19642.020123245733,-15048.557823724488,-10619.559659905393,-25640.78130016104,-15802.280998501898,0.006,0.99,0.05,192.0,0.0,0.0,0.0,0.0,0.0,0.0,0.0,0.0,0.0,1675725319.710699,0.0
464,208.0,51196.04482603608,61643.22783270214,-33531.28236905127,-19585.58196849608,-14984.363613648846,-10585.47324961105,-25676.030001167062,-15771.21207370902,0.006,0.99,0.05,192.0,0.0,0.0,0.0,0.0,0.0,0.0,0.0,0.0,0.0,1675725319.710708,0.0
465,209.0,51248.81729469506,61739.7203135157,-32726.172533771103,-19594.63442500048,-14894.241380005049,-10412.493099271429,-25244.261353523896,-15578.18240859299,0.006,0.99,0.05,192.0,0.0,0.0,0.0,0.0,0.0,0.0,0.0,0.0,0.0,1675725319.710717,0.0
466,210.0,51233.52870148763,61782.590959380985,-28871.39068500885,-19656.012315274755,-14944.5775085184,-10415.465881283984,-25128.12168933412,-15566.581853220685,0.006,0.99,0.05,192.0,0.0,0.0,0.0,0.0,0.0,0.0,0.0,0.0,0.0,1675725319.710725,0.0
467,211.0,51168.194552444766,61670.83223710445,-29326.09222246316,-19648.569184371136,-15047.417884757268,-10610.753072590003,-25578.06230521945,-15778.0740592568,0.006,0.99,0.05,192.0,0.0,0.0,0.0,0.0,0.0,0.0,0.0,0.0,0.0,1675725319.710734,0.0
468,212.0,51179.77275607261,61628.00629472808,-33164.937277428784,-19579.770514937703,-15005.374253436836,-10603.62286610876,-25712.46334462921,-15785.07015527131,0.006,0.99,0.05,192.0,0.0,0.0,0.0,0.0,0.0,0.0,0.0,0.0,0.0,1675725319.710743,0.0
469,213.0,51230.8911956419,61709.09842361193,-33309.32954661007,-19581.044564371656,-14909.865249379309,-10433.771959992882,-25315.541066591868,-15601.294112359778,0.006,0.99,0.05,192.0,0.0,0.0,0.0,0.0,0.0,0.0,0.0,0.0,0.0,1675725319.710751,0.0
470,214.0,51226.37614326193,61770.565720864026,-29461.521442117864,-19649.55266112717,-14931.412331034224,-10389.91783737157,-25094.72818311789,-15542.330210486676,0.006,0.99,0.05,192.0,0.0,0.0,0.0,0.0,0.0,0.0,0.0,0.0,0.0,1675725319.710768,0.0
471,215.0,51161.73489829718,61684.243283777636,-28883.974717137186,-19664.662440378957,-15035.437349729224,-10580.444107108606,-25492.969214078097,-15745.976954218979,0.006,0.99,0.054,192.0,0.0,48.0,30.0,240.0,1.0,176.0,0.0,0.0,0.0,1675725319.769547,0.0
472,216.0,51161.690194808274,61619.91496323526,-32682.22900417197,-19591.147552865452,-15025.78139612453,-10620.900764572712,-25736.178545496292,-15807.779527637904,0.006,0.99,0.054,192.0,0.0,0.0,0.0,0.0,0.0,0.0,0.0,0.0,0.0,1675725319.769559,0.0
473,217.0,51223.85039613848,61690.32295826948,-33770.78131088988,-19574.026116612687,-14915.229668048582,-10462.203378940032,-25394.845055919297,-15639.582650611717,0.006,0.99,0.054,192.0,0.0,0.0,0.0,0.0,0.0,0.0,0.0,0.0,0.0,1675725319.769566,0.0
474,218.0,51242.089419614014,61774.61138661044,-30168.35065702804,-19634.062902219644,-14900.388109730258,-10376.037404064824,-25077.00324976483,-15533.478919682375,0.006,0.99,0.054,192.0,0.0,0.0,0.0,0.0,0.0,0.0,0.0,0.0,0.0,1675725319.769572,0.0
475,219.0,51177.24700894916,61707.377339288876,-28561.886079536212,-19661.801417088678,-15017.488898931611,-10548.65992649316,-25399.941253655106,-15712.359930558197,0.006,0.99,0.054,192.0,0.0,0.0,0.0,0.0,0.0,0.0,0.0,0.0,0.0,1675725319.769578,0.0
476,220.0,51156.19166567227,61619.065596945955,-32050.881630287367,-19603.1280878935,-15043.685143433231,-10639.25154677052,-25747.734397379685,-15829.192498826087,0.006,0.99,0.054,192.0,0.0,0.0,0.0,0.0,0.0,0.0,0.0,0.0,0.0,1675725319.769585,0.0
