packet,eeg1,eeg2,eeg3,eeg4,eeg5,eeg6,eeg7,eeg8,accel1,accel2,accel3,other1,other2,other3,other4,other5,other6,other7,analog1,analog2,analog3,timestamp,marker
0.0,0.0,0.0,0.0,0.0,0.0,0.0,0.0,0.0,-0.048,0.9500000000000001,0.186,192.0,254.0,128.0,29.0,176.0,5.0,208.0,0.0,0.0,0.0,1674945290.16821,0.0
1.0,61921.79762384864,57637.59406061102,-21820.018806459764,-18485.876141294975,-19371.385201380876,-7593.759309501566,-27377.13186468266,-22556.732303706685,-0.048,0.9500000000000001,0.186,192.0,0.0,0.0,0.0,0.0,0.0,0.0,0.0,0.0,0.0,1674945290.233831,0.0
2.0,61975.21829309682,57650.960403795296,-21816.666044791466,-18462.429161361357,-19378.157779950834,-7439.018182637476,-27337.12224210766,-22342.37907438029,-0.048,0.9500000000000001,0.186,192.0,0.0,0.0,0.0,0.0,0.0,0.0,0.0,0.0,0.0,1674945290.233862,0.0
3.0,62176.98749029488,57654.7602003527,-21838.391940402027,-18465.826626518563,-19401.582408139995,-7301.554954237337,-27298.31961373325,-22121.499135672944,-0.048,0.9500000000000001,0.186,192.0,0.0,0.0,0.0,0.0,0.0,0.0,0.0,0.0,0.0,1674945290.233883,0.0
4.0,62143.97396373439,57649.485188661245,-21837.855498535097,-18476.5107603682,-19385.489152132173,-7408.016313077965,-27351.56146902579,-22288.153742331713,-0.048,0.9500000000000001,0.186,192.0,0.0,0.0,0.0,0.0,0.0,0.0,0.0,0.0,0.0,1674945290.233902,0.0
5.0,61949.06675208411,57644.88072930345,-21816.621341302558,-18479.95292901432,-19387.612567855427,-7587.612579776357,-27372.37094311368,-22542.494242488654,-0.048,0.9500000000000001,0.186,192.0,0.0,0.0,0.0,0.0,0.0,0.0,0.0,0.0,0.0,1674945290.233919,0.0
6.0,61951.99483060776,57655.58721489754,-21815.906085479986,-18463.79261777313,-19388.573692867005,-7465.52735156147,-27355.65183826111,-22398.504304707563,-0.048,0.9500000000000001,0.186,192.0,0.0,0.0,0.0,0.0,0.0,0.0,0.0,0.0,0.0,1674945290.233937,0.0
7.0,62156.759161562826,57656.41422944239,-21844.158690471493,-18468.88881550894,-19414.769937368626,-7318.095245134265,-27313.27293077385,-22140.788691137874,-0.048,0.9500000000000001,0.186,192.0,0.0,0.0,0.0,0.0,0.0,0.0,0.0,0.0,0.0,1674945290.233955,0.0
8.0,62168.8738070576,57646.758275837696,-21854.127568498563,-18485.920844783886,-19422.570696183528,-7421.226194051051,-27361.776216241866,-22244.657247621686,-0.066,0.968,0.13,192.0,253.0,240.0,30.0,64.0,4.0,16.0,0.0,0.0,0.0,1674945290.233974,0.0
9.0,61975.71003147484,57650.08868576154,-21814.006187201285,-18478.12008596898,-19383.566902109018,-7603.50467008408,-27367.967649455983,-22518.30965498801,-0.066,0.968,0.13,192.0,0.0,0.0,0.0,0.0,0.0,0.0,0.0,0.0,0.0,1674945290.233992,0.0
10.0,61936.84034786706,57660.86222658899,-21809.245265632304,-18466.586585830046,-19381.018803241113,-7526.927593580198,-27358.5575650403,-22442.87251745135,-0.066,0.968,0.13,192.0,0.0,0.0,0.0,0.0,0.0,0.0,0.0,0.0,0.0,1674945290.23401,0.0
11.0,62128.81948099369,57662.38214521196,-21839.777748558256,-18471.12398995447,-19393.759297580636,-7331.305126107351,-27311.775363895344,-22167.655487973152,-0.066,0.968,0.13,192.0,0.0,0.0,0.0,0.0,0.0,0.0,0.0,0.0,0.0,1674945290.234027,0.0
12.0,62194.53360969229,57654.84960733052,-21855.960411543896,-18482.366917415493,-19396.9779487822,-7343.732696024501,-27353.439015560034,-22196.176313898126,-0.066,0.968,0.13,192.0,0.0,0.0,0.0,0.0,0.0,0.0,0.0,0.0,0.0,1674945290.234045,0.0
13.0,62004.25320914426,57642.69025834683,-21823.706844294888,-18487.731336084766,-19380.392954396364,-7554.107314837852,-27372.482701835957,-22498.17073323378,-0.066,0.968,0.13,192.0,0.0,0.0,0.0,0.0,0.0,0.0,0.0,0.0,0.0,1674945290.234063,0.0
14.0,61916.99199879074,57651.47449391777,-21801.55626553968,-18466.452475363312,-19375.31910840501,-7534.437779717181,-27362.826748231262,-22493.25334945361,-0.066,0.968,0.13,192.0,0.0,0.0,0.0,0.0,0.0,0.0,0.0,0.0,0.0,1674945290.234081,0.0
15.0,62089.86039040809,57657.75533410971,-21822.253980905294,-18459.389324115436,-19377.286061917075,-7354.595643829781,-27309.249616771893,-22204.781735513418,-0.066,0.968,0.13,192.0,0.0,0.0,0.0,0.0,0.0,0.0,0.0,0.0,0.0,1674945290.234099,0.0
16.0,62207.07293833172,57653.28498521865,-21845.097463738617,-18473.64973707792,-19397.223817971208,-7347.398382115171,-27335.781137440343,-22161.95579313705,-0.066,0.968,0.13,192.0,0.0,0.0,0.0,0.0,0.0,0.0,0.0,0.0,0.0,1674945290.294079,0.0
17.0,62054.83520684663,57655.296642219626,-21813.626207545545,-18472.308632410604,-19391.211198712732,-7542.39500074327,-27354.869527205174,-22442.87251745135,-0.066,0.97,0.098,192.0,253.0,240.0,30.0,80.0,3.0,16.0,0.0,0.0,0.0,1674945290.294136,0.0
18.0,61924.792757605646,57666.71838363629,-21794.493114291803,-18453.801388001608,-19373.106285703932,-7574.02271914753,-27360.56922204128,-22517.013253809604,-0.066,0.97,0.098,192.0,0.0,0.0,0.0,0.0,0.0,0.0,0.0,0.0,0.0,1674945290.294157,0.0
19.0,62056.60099465859,57671.27813950517,-21815.682568035434,-18447.855823976497,-19390.294777190065,-7387.966798301554,-27315.016366841362,-22241.550355142397,-0.066,0.97,0.098,192.0,0.0,0.0,0.0,0.0,0.0,0.0,0.0,0.0,0.0,1674945290.294177,0.0
20.0,62207.67643543201,57660.77281961117,-21844.27044919377,-18468.307670153103,-19426.37049274093,-7311.277963075396,-27327.846268158708,-22135.871307357706,-0.066,0.97,0.098,192.0,0.0,0.0,0.0,0.0,0.0,0.0,0.0,0.0,0.0,1674945290.294195,0.0
21.0,62075.68938442342,57646.5571101376,-21832.446376376913,-18485.13853372795,-19406.097460519966,-7505.067587502907,-27371.90155648012,-22405.43334548871,-0.066,0.97,0.098,192.0,0.0,0.0,0.0,0.0,0.0,0.0,0.0,0.0,0.0,1674945290.294213,0.0
22.0,61916.65672262391,57651.429790428854,-21799.298739349695,-18470.833417276554,-19357.750637263136,-7591.680597267223,-27363.877280220662,-22547.07635010199,-0.066,0.97,0.098,192.0,0.0,0.0,0.0,0.0,0.0,0.0,0.0,0.0,0.0,1674945290.294252,0.0
23.0,62004.65554054446,57655.11782826398,-21817.671873291954,-18470.632251576455,-19374.335631648974,-7411.480833468537,-27325.65579720209,-22310.393728064744,-0.066,0.97,0.098,192.0,0.0,0.0,0.0,0.0,0.0,0.0,0.0,0.0,0.0,1674945290.29427,0.0
24.0,62184.855304343146,57648.23349097175,-21852.652353364512,-18485.09383023904,-19425.163498540343,-7300.2585530589295,-27321.476020988946,-22139.559345192833,-0.066,0.97,0.098,192.0,0.0,0.0,0.0,0.0,0.0,0.0,0.0,0.0,0.0,1674945290.294289,0.0
25.0,62105.41720454898,57639.762179823185,-21842.52701312626,-18490.167676230394,-19415.21697225773,-7462.263996870995,-27368.571146556278,-22356.348914664857,-0.066,0.97,0.098,192.0,0.0,0.0,0.0,0.0,0.0,0.0,0.0,0.0,0.0,1674945290.294307,0.0
26.0,61926.044455295145,57641.03622925714,-21810.6981290219,-18479.774115058677,-19373.776838037593,-7594.429861835225,-27370.98513495745,-22558.811015941028,-0.066,0.97,0.098,192.0,0.0,0.0,0.0,0.0,0.0,0.0,0.0,0.0,0.0,1674945290.294325,0.0
27.0,61973.34074656257,57651.27332821767,-21816.17430641345,-18466.27366140767,-19366.73603853417,-7446.014278651986,-27345.571201511768,-22362.80856881244,-0.066,0.974,0.084,192.0,253.0,240.0,30.0,112.0,2.0,160.0,0.0,0.0,0.0,1674945290.294343,0.0
28.0,62172.56184489273,57649.7087061058,-21843.242268948827,-18472.062763221595,-19391.568826624018,-7294.245933800452,-27312.982358095927,-22135.312513746325,-0.066,0.974,0.084,192.0,0.0,0.0,0.0,0.0,0.0,0.0,0.0,0.0,0.0,1674945290.294361,0.0
29.0,62142.74461778934,57643.539624636134,-21840.98474275884,-18484.08800173855,-19406.812716342534,-7434.0337436239415,-27361.306829608304,-22292.60173947832,-0.066,0.974,0.084,192.0,0.0,0.0,0.0,0.0,0.0,0.0,0.0,0.0,0.0,1674945290.294379,0.0
30.0,61952.84419689706,57646.333592693045,-21807.680643520434,-18474.99084174524,-19367.518349590107,-7597.939085714708,-27366.157158155103,-22542.31542853301,-0.066,0.974,0.084,192.0,0.0,0.0,0.0,0.0,0.0,0.0,0.0,0.0,0.0,1674945290.294397,0.0
31.0,61950.05022884015,57656.481284675756,-21804.93137895243,-18458.897585737417,-19369.015916468612,-7484.079299459375,-27340.296189820314,-22402.99700534308,-0.066,0.974,0.084,192.0,0.0,0.0,0.0,0.0,0.0,0.0,0.0,0.0,0.0,1674945290.354353,0.0
32.0,62149.69601031495,57662.85153184552,-21829.965332742373,-18462.004478216706,-19408.824373343512,-7309.936858408077,-27300.77830562333,-22149.282354030893,-0.066,0.974,0.084,192.0,0.0,0.0,0.0,0.0,0.0,0.0,0.0,0.0,0.0,1674945290.354394,0.0
33.0,62166.459818656425,57653.15087475191,-21844.292800938227,-18479.95292901432,-19404.89046631938,-7381.417737176149,-27354.5566027828,-22243.53966039892,-0.066,0.974,0.084,192.0,0.0,0.0,0.0,0.0,0.0,0.0,0.0,0.0,0.0,1674945290.354417,0.0
34.0,61972.02199363971,57649.66400261689,-21816.50958258028,-18480.80229530362,-19372.860416514923,-7578.426012805226,-27362.133844153148,-22522.958817834715,-0.066,0.974,0.084,192.0,0.0,0.0,0.0,0.0,0.0,0.0,0.0,0.0,0.0,1674945290.354437,0.0
35.0,61921.37294070399,57660.035212044146,-21808.686472020923,-18462.89854799492,-19375.56497759402,-7503.234744457573,-27356.4565010615,-22456.998819947104,-0.066,0.974,0.084,192.0,0.0,0.0,0.0,0.0,0.0,0.0,0.0,0.0,0.0,1674945290.354457,0.0
36.0,62120.81755647869,57674.04975581763,-21823.863306506075,-18448.571079799065,-19381.55524510804,-7319.168128868119,-27299.794828867296,-22158.781845424397,-0.066,0.974,0.084,192.0,0.0,0.0,0.0,0.0,0.0,0.0,0.0,0.0,0.0,1674945290.354529,0.0
37.0,62196.76878413782,57664.28204349066,-21839.688341580433,-18464.910204995896,-19406.18686749779,-7355.065030463342,-27336.518745007368,-22179.881892190206,-0.064,0.97,0.07200000000000001,192.0,254.0,0.0,30.0,80.0,2.0,64.0,0.0,0.0,0.0,1674945290.354574,0.0
38.0,62010.46699410284,57648.2558427162,-21821.024634960253,-18482.45632439331,-19389.400707411853,-7567.518361511035,-27363.98903894294,-22484.893797027325,-0.064,0.97,0.07200000000000001,192.0,0.0,0.0,0.0,0.0,0.0,0.0,0.0,0.0,0.0,1674945290.354618,0.0
39.0,61911.40406267692,57653.37439219647,-21810.340501110615,-18469.84994052052,-19368.9712129797,-7556.990689872586,-27369.46521633449,-22498.103678000414,-0.064,0.97,0.07200000000000001,192.0,0.0,0.0,0.0,0.0,0.0,0.0,0.0,0.0,0.0,1674945290.354663,0.0
40.0,62081.21026530389,57662.44920044532,-21827.864268763577,-18465.066667207084,-19380.83998928547,-7354.97562348552,-27318.056204087283,-22207.709814037065,-0.064,0.97,0.07200000000000001,192.0,0.0,0.0,0.0,0.0,0.0,0.0,0.0,0.0,0.0,1674945290.354706,0.0
41.0,62211.833859900704,57661.152799266914,-21844.38220791605,-18479.41648714739,-19415.55224842456,-7318.989314912476,-27334.08240486174,-22155.51849073392,-0.064,0.97,0.07200000000000001,192.0,0.0,0.0,0.0,0.0,0.0,0.0,0.0,0.0,0.0,1674945290.354755,0.0
42.0,62056.355125469585,57654.40257244141,-21823.706844294888,-18485.98790001725,-19383.522198620107,-7522.636058644779,-27358.579916784754,-22439.720921483153,-0.064,0.97,0.07200000000000001,192.0,0.0,0.0,0.0,0.0,0.0,0.0,0.0,0.0,0.0,1674945290.35481,0.0
43.0,61928.34668497404,57665.89136909144,-21805.08784116362,-18468.7100015533,-19363.40562861033,-7557.5941869728795,-27362.89380346463,-22531.005445838626,-0.064,0.97,0.07200000000000001,192.0,0.0,0.0,0.0,0.0,0.0,0.0,0.0,0.0,0.0,1674945290.354863,0.0
44.0,62061.250157505296,57680.71057566531,-21818.141259925516,-18457.645888047922,-19380.907044518834,-7362.485809622504,-27315.77632615284,-22258.805901861895,-0.064,0.97,0.07200000000000001,192.0,0.0,0.0,0.0,0.0,0.0,0.0,0.0,0.0,0.0,1674945290.354896,0.0
45.0,62220.148708838075,57673.89329360644,-21845.075111994163,-18468.64294631993,-19410.858382088947,-7316.374160811206,-27318.391480254115,-22130.730406132985,-0.064,0.97,0.07200000000000001,192.0,0.0,0.0,0.0,0.0,0.0,0.0,0.0,0.0,0.0,1674945290.354916,0.0
46.0,62092.632006720545,57657.867092831984,-21834.52508861126,-18478.835341791553,-19406.276274475607,-7514.365913196316,-27365.106626165703,-22390.412973214745,-0.064,0.97,0.07200000000000001,192.0,0.0,0.0,0.0,0.0,0.0,0.0,0.0,0.0,0.0,1674945290.413775,0.0
47.0,61925.68682738386,57665.5113894357,-21809.245265632304,-18465.647812562922,-19365.484340844672,-7598.497879326092,-27369.286402378846,-22548.238640813666,-0.07,0.976,0.07,192.0,253.0,208.0,30.0,128.0,2.0,48.0,0.0,0.0,0.0,1674945290.413812,0.0
48.0,62012.590409826094,57676.84372387454,-21820.577600071145,-18454.114312423982,-19371.809884525526,-7431.664458711679,-27329.768518181863,-22312.42773681018,-0.07,0.976,0.07,192.0,0.0,0.0,0.0,0.0,0.0,0.0,0.0,0.0,0.0,1674945290.413862,0.0
49.0,62202.803755140754,57672.84276161704,-21854.149920243017,-18473.739144055744,-19390.250073701154,-7310.562707252826,-27318.436183743022,-22134.641961412664,-0.07,0.976,0.07,192.0,0.0,0.0,0.0,0.0,0.0,0.0,0.0,0.0,0.0,1674945290.413883,0.0
50.0,62133.44629209594,57667.90302609242,-21850.52893764126,-18493.341623943048,-19399.16841973882,-7459.492380558537,-27372.12507392467,-22354.784292552984,-0.07,0.976,0.07,192.0,0.0,0.0,0.0,0.0,0.0,0.0,0.0,0.0,0.0,1674945290.413903,0.0
51.0,61952.84419689706,57673.89329360644,-21813.715614523368,-18475.929615012363,-19360.9692884647,-7586.562047786957,-27366.98417269995,-22556.888765917873,-0.07,0.976,0.07,192.0,0.0,0.0,0.0,0.0,0.0,0.0,0.0,0.0,0.0,1674945290.413924,0.0
52.0,61977.6769849869,57672.59689242803,-21816.397823858002,-18460.7080770383,-19362.891538487856,-7456.743115990534,-27343.961875910984,-22366.56366188093,-0.07,0.976,0.07,192.0,0.0,0.0,0.0,0.0,0.0,0.0,0.0,0.0,0.0,1674945290.413943,0.0
53.0,62176.49575191686,57668.17124702588,-21843.488138137836,-18467.503007352712,-19409.494925677172,-7315.748311966457,-27309.96487259446,-22137.726502147496,-0.07,0.976,0.07,192.0,0.0,0.0,0.0,0.0,0.0,0.0,0.0,0.0,0.0,1674945290.413963,0.0
54.0,62157.2732516853,57664.77378186867,-21838.950734013408,-18469.51466435369,-19421.967199083236,-7435.263089568984,-27352.50024229291,-22279.525968971964,-0.07,0.976,0.07,192.0,0.0,0.0,0.0,0.0,0.0,0.0,0.0,0.0,0.0,1674945290.413983,0.0
55.0,61953.98413586428,57653.01676428518,-21809.312320865673,-18472.19687368833,-19385.578559109996,-7597.715568270156,-27358.646972018123,-22538.247411042146,-0.07,0.976,0.07,192.0,0.0,0.0,0.0,0.0,0.0,0.0,0.0,0.0,0.0,1674945290.414003,0.0
56.0,61931.90061234243,57653.84377883003,-21811.45808833338,-18458.115274681484,-19380.415306140818,-7485.24159017105,-27344.721835222466,-22418.39735727279,-0.07,0.976,0.07,192.0,0.0,0.0,0.0,0.0,0.0,0.0,0.0,0.0,0.0,1674945290.414023,0.0
57.0,62124.97498094738,57648.12173224947,-21843.979876515852,-18462.74208578373,-19408.913780321334,-7317.335285822784,-27305.472171958947,-22153.216261055026,-0.07,0.974,0.074,192.0,253.0,208.0,30.0,112.0,2.0,80.0,0.0,0.0,0.0,1674945290.414043,0.0
58.0,62158.703763330435,57641.19269146833,-21855.066341765683,-18477.605995846512,-19419.55321068206,-7392.101871025786,-27348.78985271333,-22227.714625324563,-0.07,0.974,0.074,192.0,0.0,0.0,0.0,0.0,0.0,0.0,0.0,0.0,0.0,1674945290.414063,0.0
59.0,61969.49624651626,57643.31610719158,-21822.477498349846,-18478.343603413537,-19378.314242162018,-7587.8808007098205,-27360.54687029682,-22516.07448054248,-0.07,0.974,0.074,192.0,0.0,0.0,0.0,0.0,0.0,0.0,0.0,0.0,0.0,1674945290.414083,0.0
60.0,61914.95799004531,57651.83212182905,-21812.575675556145,-18464.262004406693,-19365.998430967145,-7525.541785423969,-27353.863698704685,-22463.92786072825,-0.07,0.974,0.074,192.0,0.0,0.0,0.0,0.0,0.0,0.0,0.0,0.0,0.0,1674945290.414103,0.0
61.0,62104.05374813721,57659.968156810784,-21832.491079865824,-18463.390286372934,-19393.04404175807,-7314.563669510326,-27300.219512011947,-22177.49025553349,-0.07,0.974,0.074,192.0,0.0,0.0,0.0,0.0,0.0,0.0,0.0,0.0,0.0,1674945290.473592,0.0
62.0,62190.55499917925,57654.78255209715,-21850.394827174525,-18482.210455204306,-19413.54059142358,-7338.792960499878,-27334.909419406584,-22186.81093297135,-0.07,0.974,0.074,192.0,0.0,0.0,0.0,0.0,0.0,0.0,0.0,0.0,0.0,1674945290.473628,0.0
63.0,62009.12588943552,57645.39481942592,-21826.254943162792,-18488.334833185058,-19379.20831194023,-7561.461038763648,-27365.285440121348,-22486.21254995019,-0.07,0.974,0.074,192.0,0.0,0.0,0.0,0.0,0.0,0.0,0.0,0.0,0.0,1674945290.47365,0.0
64.0,61909.14653648693,57661.59983415602,-21801.93624519542,-18467.41360037489,-19347.468834813695,-7558.421201517725,-27361.59740228622,-22505.6138641374,-0.07,0.974,0.074,192.0,0.0,0.0,0.0,0.0,0.0,0.0,0.0,0.0,0.0,1674945290.473684,0.0
65.0,62076.02466059026,57669.64646215993,-21820.33173088214,-18463.904376495408,-19352.833253482968,-7344.380896613705,-27301.381802723623,-22220.91969501015,-0.07,0.974,0.074,192.0,0.0,0.0,0.0,0.0,0.0,0.0,0.0,0.0,0.0,1674945290.473702,0.0
66.0,62205.50831621985,57658.98468005475,-21845.499795138814,-18486.032603506163,-19393.69224234727,-7270.016642810899,-27326.88514314713,-22161.754627436952,-0.07,0.974,0.074,192.0,0.0,0.0,0.0,0.0,0.0,0.0,0.0,0.0,0.0,1674945290.47372,0.0
67.0,62049.13551201052,57648.12173224947,-21823.59508557261,-18488.670109351886,-19390.674756845805,-7528.380456969793,-27361.083312163748,-22440.324418583445,-0.07200000000000001,0.972,0.074,192.0,253.0,192.0,30.0,96.0,2.0,80.0,0.0,0.0,0.0,1674945290.473738,0.0
68.0,61910.44293766534,57660.817523100086,-21799.388146327514,-18462.69738229482,-19367.630108312384,-7592.954646701175,-27356.545908039323,-22528.79262313755,-0.07200000000000001,0.972,0.074,192.0,0.0,0.0,0.0,0.0,0.0,0.0,0.0,0.0,0.0,1674945290.473756,0.0
69.0,62032.75168332478,57670.20525577131,-21821.76224252728,-18453.399056601414,-19371.943994992256,-7394.918190827155,-27313.295282518302,-22265.243204265025,-0.07200000000000001,0.972,0.074,192.0,0.0,0.0,0.0,0.0,0.0,0.0,0.0,0.0,0.0,1674945290.473773,0.0
70.0,62198.489868460885,57669.110020293,-21849.187832973937,-18462.473864850268,-19390.004204512144,-7318.296410834362,-27322.37009076716,-22131.624475911198,-0.07200000000000001,0.972,0.074,192.0,0.0,0.0,0.0,0.0,0.0,0.0,0.0,0.0,0.0,1674945290.473791,0.0
71.0,62077.79044840222,57652.88265381845,-21838.36958865757,-18480.087039481048,-19392.88757954688,-7495.7692618095,-27366.112454666192,-22383.23806324459,-0.07200000000000001,0.972,0.074,192.0,0.0,0.0,0.0,0.0,0.0,0.0,0.0,0.0,0.0,1674945290.473809,0.0
72.0,61907.78308007516,57651.36273519549,-21811.88277147803,-18470.296975409627,-19376.30258516104,-7612.043036466007,-27371.23100414646,-22554.89946066135,-0.07200000000000001,0.972,0.074,192.0,0.0,0.0,0.0,0.0,0.0,0.0,0.0,0.0,0.0,1674945290.473827,0.0
73.0,61990.35042409306,57661.152799266914,-21823.17040242796,-18459.009344459697,-19376.190826438764,-7422.61200220728,-27335.31175080678,-22324.631789282776,-0.07200000000000001,0.972,0.074,192.0,0.0,0.0,0.0,0.0,0.0,0.0,0.0,0.0,0.0,1674945290.473845,0.0
74.0,62185.0788217877,57661.59983415602,-21849.925440540963,-18470.162864942893,-19406.65625413135,-7288.590942453259,-27314.614035441165,-22134.105519545737,-0.07200000000000001,0.972,0.074,192.0,0.0,0.0,0.0,0.0,0.0,0.0,0.0,0.0,0.0,1674945290.473863,0.0
75.0,62120.14700414503,57651.720363106775,-21842.392902659525,-18484.75855407221,-19404.532838408093,-7445.18726410714,-27361.262126119393,-22338.46751910061,-0.07200000000000001,0.972,0.074,192.0,0.0,0.0,0.0,0.0,0.0,0.0,0.0,0.0,0.0,1674945290.473881,0.0
76.0,61924.61394365,57646.44535141532,-21819.683530292932,-18483.819780805086,-19356.9683262072,-7601.157736916272,-27377.869472249684,-22567.863472445428,-0.07200000000000001,0.972,0.074,192.0,0.0,0.0,0.0,0.0,0.0,0.0,0.0,0.0,0.0,1674945290.533796,0.0
77.0,61957.31454578812,57661.48807543374,-21814.676739534945,-18462.540920083633,-19363.293869888053,-7471.674081286679,-27340.922038665063,-22379.728839365107,-0.07200000000000001,0.972,0.064,192.0,253.0,192.0,30.0,96.0,2.0,0.0,0.0,0.0,0.0,1674945290.533832,0.0
78.0,62164.850493055645,57664.52791267967,-21836.69320782342,-18465.871330007474,-19408.064414032033,-7306.405282784139,-27302.253520757382,-22137.748853891953,-0.07200000000000001,0.972,0.064,192.0,0.0,0.0,0.0,0.0,0.0,0.0,0.0,0.0,0.0,1674945290.533853,0.0
79.0,62142.99048697836,57643.472569402766,-21849.433702162947,-18489.005385518718,-19431.42198698783,-7406.496394455004,-27361.530347052856,-22285.27036729698,-0.07200000000000001,0.972,0.064,192.0,0.0,0.0,0.0,0.0,0.0,0.0,0.0,0.0,0.0,1674945290.533872,0.0
80.0,61938.33791474556,57636.49882513271,-21820.197620415405,-18483.23863544925,-19381.801114297046,-7595.301579868982,-27373.600289058722,-22552.84310017146,-0.07200000000000001,0.972,0.064,192.0,0.0,0.0,0.0,0.0,0.0,0.0,0.0,0.0,0.0,1674945290.533891,0.0
81.0,61916.85788832401,57648.9040433054,-21815.235533146326,-18458.517606081678,-19359.44936984174,-7499.524354877992,-27359.026951673863,-22436.815194703962,-0.07200000000000001,0.972,0.064,192.0,0.0,0.0,0.0,0.0,0.0,0.0,0.0,0.0,0.0,1674945290.533909,0.0
82.0,62118.358864588605,57658.47058993228,-21839.97891425835,-18452.125007167462,-19353.570861049993,-7307.031131628887,-27308.623767927143,-22159.2288803135,-0.07200000000000001,0.972,0.064,192.0,0.0,0.0,0.0,0.0,0.0,0.0,0.0,0.0,0.0,1674945290.533927,0.0
83.0,62159.754295319835,57646.467703159775,-21848.02554226226,-18464.709039295798,-19395.547437137062,-7359.803600287867,-27344.677131733555,-22224.428918889633,-0.07200000000000001,0.972,0.064,192.0,0.0,0.0,0.0,0.0,0.0,0.0,0.0,0.0,0.0,1674945290.533945,0.0
84.0,61959.54972023365,57629.145101206916,-21829.13831819753,-18484.244463949737,-19351.49214881565,-7576.168486615239,-27367.99000120044,-22525.149288791334,-0.07200000000000001,0.972,0.064,192.0,0.0,0.0,0.0,0.0,0.0,0.0,0.0,0.0,0.0,1674945290.533963,0.0
85.0,61891.511010111695,57639.29279318963,-21823.818603017164,-18476.399001645925,-19339.10928238741,-7502.184212468173,-27371.968611713484,-22495.5108756436,-0.07200000000000001,0.972,0.064,192.0,0.0,0.0,0.0,0.0,0.0,0.0,0.0,0.0,0.0,1674945290.533981,0.0
86.0,62071.97899484384,57639.4045519119,-21851.37830393056,-18482.791600560144,-19406.36568145343,-7292.971884366499,-27325.052300101794,-22210.660244305163,-0.07200000000000001,0.972,0.064,192.0,0.0,0.0,0.0,0.0,0.0,0.0,0.0,0.0,0.0,1674945290.534014,0.0
87.0,62181.61430139712,57645.3054124481,-21856.832129577655,-18481.85282729302,-19419.620265915426,-7338.636498288692,-27345.37003581167,-22186.699174249075,-0.068,0.98,0.06,192.0,253.0,224.0,30.0,160.0,1.0,224.0,0.0,0.0,0.0,1674945290.534033,0.0
88.0,62014.0879767046,57640.20921471229,-21829.652408320002,-18484.959719772305,-19382.449314886253,-7567.764230700044,-27362.335009853246,-22478.568253346475,-0.068,0.98,0.06,192.0,0.0,0.0,0.0,0.0,0.0,0.0,0.0,0.0,0.0,1674945290.534051,0.0
89.0,61901.25637069421,57655.85543583101,-21813.000358700796,-18469.26879516468,-19370.893463002856,-7569.909998167754,-27365.173681399072,-22518.376710221375,-0.068,0.98,0.06,192.0,0.0,0.0,0.0,0.0,0.0,0.0,0.0,0.0,0.0,1674945290.534069,0.0
90.0,62050.45426493338,57661.48807543374,-21834.122757211062,-18468.933518997852,-19394.005166769646,-7372.1641149716515,-27309.942520850007,-22230.843869548306,-0.068,0.98,0.06,192.0,0.0,0.0,0.0,0.0,0.0,0.0,0.0,0.0,0.0,1674945290.534087,0.0
91.0,62181.34608046366,57652.54737765162,-21858.977897045363,-18482.70219358232,-19408.84672508797,-7329.40522782865,-27330.41671877107,-22155.47378724501,-0.068,0.98,0.06,192.0,0.0,0.0,0.0,0.0,0.0,0.0,0.0,0.0,0.0,1674945290.594295,0.0
92.0,62034.71863683685,57643.204348469306,-21840.582411358646,-18491.32996694207,-19365.30552688903,-7507.995666026553,-27357.775253984364,-22428.76856670005,-0.068,0.98,0.06,192.0,0.0,0.0,0.0,0.0,0.0,0.0,0.0,0.0,0.0,1674945290.594334,0.0
93.0,61884.35845188599,57642.06440950208,-21824.377396628548,-18485.7643825727,-19358.085913429968,-7571.541675512991,-27361.79856798632,-22543.634181455873,-0.068,0.98,0.06,192.0,0.0,0.0,0.0,0.0,0.0,0.0,0.0,0.0,0.0,1674945290.594357,0.0
94.0,62004.65554054446,57653.9108340634,-21836.872021779065,-18470.56519634309,-19385.60091085445,-7396.907496083677,-27316.871561631153,-22275.659117181196,-0.068,0.98,0.06,192.0,0.0,0.0,0.0,0.0,0.0,0.0,0.0,0.0,0.0,1674945290.594377,0.0
95.0,62179.51323741832,57650.245147972724,-21869.03618205025,-18478.410658646902,-19400.42011742832,-7296.749329179446,-27310.41190748357,-22123.376682207192,-0.068,0.98,0.06,192.0,0.0,0.0,0.0,0.0,0.0,0.0,0.0,0.0,0.0,1674945290.594398,0.0
96.0,62066.68163140793,57632.922546019865,-21866.95746981591,-18494.459211165813,-19357.39300935185,-7475.183305166162,-27359.205765629504,-22366.831882814397,-0.074,0.982,0.064,192.0,253.0,176.0,30.0,176.0,2.0,0.0,0.0,0.0,0.0,1674945290.594418,0.0
97.0,61904.56442887359,57647.250014215715,-21833.206335688395,-18474.767324300687,-19326.525250259074,-7585.153887886273,-27358.33404759575,-22526.669207414296,-0.074,0.982,0.064,192.0,0.0,0.0,0.0,0.0,0.0,0.0,0.0,0.0,0.0,1674945290.594438,0.0
98.0,61983.46608680083,57660.34813646652,-21834.7039025669,-18458.383495614948,-19357.527119818584,-7431.865624411777,-27315.37399475265,-22296.69210871364,-0.074,0.982,0.064,192.0,0.0,0.0,0.0,0.0,0.0,0.0,0.0,0.0,0.0,1674945290.594458,0.0
99.0,62172.56184489273,57653.55320615211,-21867.13628377155,-18478.99180400274,-19393.26755920262,-7300.169146081108,-27297.26908174385,-22100.264978440402,-0.074,0.982,0.064,192.0,0.0,0.0,0.0,0.0,0.0,0.0,0.0,0.0,0.0,1674945290.594507,0.0
100.0,62114.179088375466,57644.14312173642,-21864.632888392556,-18498.95191180133,-19383.41043989783,-7445.053153640409,-27351.919096937072,-22287.617300464786,-0.074,0.982,0.064,192.0,0.0,0.0,0.0,0.0,0.0,0.0,0.0,0.0,0.0,1674945290.594527,0.0
101.0,61927.34085647355,57648.009973527194,-21834.36862640007,-18492.76047858721,-19338.438730053753,-7618.0556557244845,-27356.165928383583,-22517.68380614326,-0.074,0.982,0.064,192.0,0.0,0.0,0.0,0.0,0.0,0.0,0.0,0.0,0.0,1674945290.594547,0.0
102.0,61962.90248190195,57669.57940692657,-21831.775824043256,-18477.494237124236,-19330.034474138556,-7487.968502994598,-27325.83461115773,-22348.011713983025,-0.074,0.982,0.064,192.0,0.0,0.0,0.0,0.0,0.0,0.0,0.0,0.0,0.0,1674945290.594568,0.0
103.0,62176.85337982814,57678.98949134225,-21855.42396967697,-18482.009289504207,-19343.289058600552,-7324.532547537393,-27285.243843226894,-22097.471010383488,-0.074,0.982,0.064,192.0,0.0,0.0,0.0,0.0,0.0,0.0,0.0,0.0,0.0,1674945290.594588,0.0
104.0,62163.30822268823,57663.72324987927,-21861.056609279705,-18493.073403009585,-19375.855550271935,-7420.108606828286,-27335.803489184796,-22218.975093242538,-0.074,0.982,0.064,192.0,0.0,0.0,0.0,0.0,0.0,0.0,0.0,0.0,0.0,1674945290.594608,0.0
105.0,61958.49918824425,57651.586252640045,-21840.85063229211,-18492.84988556503,-19354.420227339295,-7597.335588614415,-27351.293248092326,-22489.028869751557,-0.074,0.982,0.064,192.0,0.0,0.0,0.0,0.0,0.0,0.0,0.0,0.0,0.0,1674945290.594628,0.0
106.0,61927.54202217365,57659.67758413286,-21843.5551933712,-18478.56712085809,-19344.853680712426,-7496.059834487419,-27346.085291634237,-22389.518903436532,-0.076,0.972,0.07200000000000001,192.0,253.0,160.0,30.0,96.0,2.0,64.0,0.0,0.0,0.0,1674945290.654429,0.0
107.0,62122.80686173521,57663.79030511264,-21861.28012672426,-18469.291146909138,-19368.434771112774,-7335.328440109306,-27295.41388695406,-22108.04338551085,-0.076,0.972,0.07200000000000001,192.0,0.0,0.0,0.0,0.0,0.0,0.0,0.0,0.0,0.0,1674945290.65451,0.0
108.0,62164.984603522375,57651.8097700846,-21875.60759492011,-18481.070516237083,-19381.13056196339,-7378.333196441316,-27335.199992084505,-22157.932479135095,-0.076,0.972,0.07200000000000001,192.0,0.0,0.0,0.0,0.0,0.0,0.0,0.0,0.0,0.0,1674945290.654532,0.0
109.0,61959.43796151137,57635.67181058786,-21856.116873755083,-18492.827533820575,-19363.964422221714,-7580.303559339472,-27359.36222784069,-22454.227203634644,-0.076,0.972,0.07200000000000001,192.0,0.0,0.0,0.0,0.0,0.0,0.0,0.0,0.0,0.0,1674945290.654553,0.0
110.0,61879.93280648385,57647.83115957155,-21847.019713761772,-18474.23088243376,-19351.156872648822,-7554.800218915966,-27363.85492847621,-22432.858935935372,-0.076,0.972,0.07200000000000001,192.0,0.0,0.0,0.0,0.0,0.0,0.0,0.0,0.0,0.0,1674945290.654573,0.0
111.0,62062.434799961426,57656.01189804219,-21865.03521979275,-18470.095809709528,-19361.572785564993,-7360.407097388161,-27308.17673303804,-22147.181290052093,-0.076,0.972,0.07200000000000001,192.0,0.0,0.0,0.0,0.0,0.0,0.0,0.0,0.0,0.0,1674945290.654594,0.0
112.0,62161.90006278754,57647.0041450267,-21883.900092113032,-18491.978167531273,-19372.301622903542,-7348.761838526945,-27336.49639326291,-22137.19006028057,-0.076,0.972,0.07200000000000001,192.0,0.0,0.0,0.0,0.0,0.0,0.0,0.0,0.0,0.0,1674945290.654614,0.0
113.0,61994.88782821749,57643.00318276921,-21859.46963542338,-18501.455307180324,-19357.772989007593,-7538.818721630421,-27363.117320909183,-22433.26126733557,-0.076,0.972,0.07200000000000001,192.0,0.0,0.0,0.0,0.0,0.0,0.0,0.0,0.0,0.0,1674945290.654652,0.0
114.0,61883.464382107784,57656.14600850893,-21832.89341126602,-18481.40579240391,-19358.35413436343,-7533.655468661245,-27361.485643563945,-22478.657660324297,-0.076,0.972,0.07200000000000001,192.0,0.0,0.0,0.0,0.0,0.0,0.0,0.0,0.0,0.0,1674945290.654695,0.0
115.0,62032.34935192458,57663.544435923635,-21847.265582950782,-18473.85090277802,-19375.654384571837,-7350.862902505744,-27311.909474362074,-22195.05872667536,-0.076,0.972,0.07200000000000001,192.0,0.0,0.0,0.0,0.0,0.0,0.0,0.0,0.0,0.0,1674945290.654716,0.0
116.0,62178.79798159576,57661.59983415602,-21873.059496052207,-18485.250292450226,-19402.342367451474,-7345.386725114194,-27331.511954249378,-22110.70324310103,-0.078,0.968,0.074,192.0,253.0,144.0,30.0,64.0,2.0,80.0,0.0,0.0,0.0,1674945290.654736,0.0
117.0,62039.34544793909,57650.02163052817,-21861.28012672426,-18495.59915013303,-19378.336593906475,-7547.491198479081,-27368.23587038945,-22386.657880146253,-0.078,0.968,0.074,192.0,0.0,0.0,0.0,0.0,0.0,0.0,0.0,0.0,0.0,1674945290.654756,0.0
118.0,61888.20295193231,57655.900139319914,-21836.73791131233,-18480.98110925926,-19365.26082340012,-7593.535792057013,-27375.23196640396,-22509.972454306182,-0.078,0.968,0.074,192.0,0.0,0.0,0.0,0.0,0.0,0.0,0.0,0.0,0.0,1674945290.654776,0.0
119.0,61999.17936315291,57668.59593017053,-21842.95169627091,-18465.714867796287,-19359.717590775203,-7406.60815317728,-27328.06978560326,-22250.289887224422,-0.078,0.968,0.074,192.0,0.0,0.0,0.0,0.0,0.0,0.0,0.0,0.0,0.0,1674945290.654796,0.0
120.0,62173.12063850411,57663.611491157,-21867.650373894023,-18478.343603413537,-19402.364719195928,-7309.623933985703,-27316.916265120064,-22101.56137961881,-0.078,0.968,0.074,192.0,0.0,0.0,0.0,0.0,0.0,0.0,0.0,0.0,0.0,1674945290.654816,0.0
121.0,62076.8516751351,57655.52015966418,-21852.31707719768,-18485.98790001725,-19383.9245300203,-7472.746965020534,-27356.50120455041,-22331.449071341645,-0.078,0.968,0.074,192.0,0.0,0.0,0.0,0.0,0.0,0.0,0.0,0.0,0.0,1674945290.716171,0.0
122.0,61901.83751605004,57655.27429047517,-21829.51829785327,-18479.774115058677,-19339.556317276518,-7603.571725317446,-27361.79856798632,-22517.281474743068,-0.078,0.968,0.074,192.0,0.0,0.0,0.0,0.0,0.0,0.0,0.0,0.0,0.0,1674945290.716208,0.0
123.0,61965.98702263678,57665.89136909144,-21838.23547819084,-18471.839245777042,-19346.485358057664,-7460.274691614472,-27333.07657636125,-22307.64446349674,-0.078,0.968,0.074,192.0,0.0,0.0,0.0,0.0,0.0,0.0,0.0,0.0,0.0,1674945290.716229,0.0
124.0,62163.57644362169,57665.39963071342,-21864.65524013701,-18480.869350536985,-19374.402686882342,-7324.376085326206,-27310.344852250204,-22103.32716743078,-0.078,0.968,0.074,192.0,0.0,0.0,0.0,0.0,0.0,0.0,0.0,0.0,0.0,1674945290.716247,0.0
125.0,62120.258762867306,57658.06825853208,-21859.491987167836,-18491.799353575632,-19383.455143386742,-7454.686755500646,-27354.5566027828,-22278.63189919375,-0.078,0.968,0.074,192.0,0.0,0.0,0.0,0.0,0.0,0.0,0.0,0.0,0.0,1674945290.716265,0.0
126.0,61925.17273726139,57658.98468005475,-21831.731120554345,-18491.95581578682,-19345.54658479054,-7614.144100444806,-27363.072617420272,-22519.78487012206,-0.074,0.97,0.078,192.0,253.0,176.0,30.0,80.0,2.0,112.0,0.0,0.0,0.0,1674945290.716283,0.0
127.0,61934.359304232516,57662.15862776741,-21839.66598983598,-18487.105487240016,-19338.215212609197,-7482.313511647405,-27351.382655070145,-22371.346935194368,-0.074,0.97,0.078,192.0,0.0,0.0,0.0,0.0,0.0,0.0,0.0,0.0,0.0,1674945290.716302,0.0
128.0,62146.186786435464,57672.52983719466,-21855.826301077166,-18482.679841837864,-19366.713686789713,-7311.434425286583,-27314.36816625216,-22119.33101646078,-0.074,0.97,0.078,192.0,0.0,0.0,0.0,0.0,0.0,0.0,0.0,0.0,0.0,1674945290.716337,0.0
129.0,62150.031286481775,57665.19846501332,-21859.290821467737,-18493.654548365423,-19397.872018560414,-7412.866641624766,-27358.289344106837,-22232.430843404632,-0.074,0.97,0.078,192.0,0.0,0.0,0.0,0.0,0.0,0.0,0.0,0.0,0.0,1674945290.716355,0.0
130.0,61951.79366490766,57658.716459121286,-21830.859402520586,-18491.106449497514,-19359.963459964212,-7601.291847383005,-27370.42634134607,-22506.4632304267,-0.074,0.97,0.078,192.0,0.0,0.0,0.0,0.0,0.0,0.0,0.0,0.0,0.0,1674945290.716373,0.0
131.0,61917.68490286886,57670.317014493594,-21822.7010157944,-18471.436914376845,-19362.422151854294,-7514.231802729583,-27362.625582531167,-22414.35169152638,-0.074,0.97,0.078,192.0,0.0,0.0,0.0,0.0,0.0,0.0,0.0,0.0,0.0,1674945290.716391,0.0
132.0,62117.2636291103,57675.18969478485,-21848.494928895823,-18466.050143963115,-19371.541663592063,-7320.218660857518,-27313.295282518302,-22139.425234726103,-0.074,0.97,0.078,192.0,0.0,0.0,0.0,0.0,0.0,0.0,0.0,0.0,0.0,1674945290.71641,0.0
133.0,62175.333461205184,57662.337441723044,-21868.79031286124,-18476.242539434737,-19384.036288742576,-7370.644196348691,-27359.339876096237,-22180.843017201783,-0.074,0.97,0.078,192.0,0.0,0.0,0.0,0.0,0.0,0.0,0.0,0.0,0.0,1674945290.716428,0.0
134.0,61982.84023795608,57652.79324684063,-21840.26948693627,-18475.124952211972,-19379.387125895875,-7578.828344205421,-27376.953050727017,-22471.572157331964,-0.074,0.97,0.078,192.0,0.0,0.0,0.0,0.0,0.0,0.0,0.0,0.0,0.0,1674945290.716446,0.0
135.0,61897.031890992155,57660.34813646652,-21831.507603109792,-18462.339754383534,-19368.613585068415,-7549.63696594679,-27370.64985879062,-22461.133892671336,-0.074,0.97,0.078,192.0,0.0,0.0,0.0,0.0,0.0,0.0,0.0,0.0,0.0,1674945290.716464,0.0
136.0,62075.21999778986,57672.41807847239,-21851.98180103085,-18461.624498560966,-19388.350175422453,-7359.356565398761,-27320.984282610927,-22175.657412488155,-0.076,0.974,0.074,192.0,253.0,160.0,30.0,112.0,2.0,80.0,0.0,0.0,0.0,1674945290.77399,0.0
137.0,62182.128391519596,57664.4608574463,-21872.545405929734,-18482.85865579351,-19399.79426858357,-7334.7696464979235,-27345.83942244523,-22150.042313342372,-0.076,0.974,0.074,192.0,0.0,0.0,0.0,0.0,0.0,0.0,0.0,0.0,0.0,1674945290.774025,0.0
138.0,62010.86932550304,57654.40257244141,-21848.539632384734,-18490.190027974848,-19335.890631185848,-7519.953849310143,-27371.990963457938,-22434.53531676952,-0.076,0.974,0.074,192.0,0.0,0.0,0.0,0.0,0.0,0.0,0.0,0.0,0.0,1674945290.774045,0.0
139.0,61886.37010888697,57658.582348654556,-21832.55813509919,-18483.08217323806,-19333.722511973683,-7537.723486152111,-27376.908347238106,-22504.31746295899,-0.076,0.974,0.074,192.0,0.0,0.0,0.0,0.0,0.0,0.0,0.0,0.0,0.0,1674945290.774064,0.0
140.0,62035.05391300368,57674.04975581763,-21839.84480379162,-18467.03362071915,-19358.421189596796,-7383.585856388314,-27328.717986192463,-22229.949799770093,-0.076,0.974,0.074,192.0,0.0,0.0,0.0,0.0,0.0,0.0,0.0,0.0,0.0,1674945290.774082,0.0
141.0,62190.10796429014,57676.195523285336,-21854.775769087766,-18470.609899832,-19393.40166966935,-7328.131178394697,-27331.42254727156,-22116.000606536938,-0.076,0.974,0.074,192.0,0.0,0.0,0.0,0.0,0.0,0.0,0.0,0.0,0.0,1674945290.774099,0.0
142.0,62055.32694522464,57661.82335160057,-21838.36958865757,-18487.284301195657,-19392.261730702132,-7502.273619445994,-27362.536175553345,-22376.823112585917,-0.076,0.974,0.074,192.0,0.0,0.0,0.0,0.0,0.0,0.0,0.0,0.0,0.0,1674945290.774117,0.0
143.0,61897.523629370175,57663.03034580116,-21817.18013491394,-18483.484504638258,-19365.864320500412,-7604.510498584569,-27371.6109838022,-22514.59926540843,-0.076,0.974,0.074,192.0,0.0,0.0,0.0,0.0,0.0,0.0,0.0,0.0,0.0,1674945290.774135,0.0
144.0,62002.666235287936,57674.98852908475,-21825.8526117626,-18472.532149855157,-19371.809884525526,-7430.077484855353,-27328.74033793692,-22267.679544410654,-0.076,0.974,0.074,192.0,0.0,0.0,0.0,0.0,0.0,0.0,0.0,0.0,0.0,1674945290.774154,0.0
145.0,62184.83295259869,57673.602720928524,-21848.561984129192,-18479.014155747194,-19380.281195674088,-7320.35277132425,-27320.716061677464,-22105.00354826493,-0.076,0.974,0.074,192.0,0.0,0.0,0.0,0.0,0.0,0.0,0.0,0.0,0.0,1674945290.774172,0.0
146.0,62087.13347758454,57655.67662187536,-21842.37055091507,-18495.777964088677,-19364.970250722203,-7476.166781922196,-27363.251431375913,-22330.28678062997,-0.07,0.97,0.074,192.0,253.0,208.0,30.0,80.0,2.0,80.0,0.0,0.0,0.0,1674945290.774189,0.0
147.0,61896.741318314234,57646.64651711542,-21831.66406532098,-18503.690481625854,-19341.947953933235,-7621.073141225951,-27390.252338677925,-22539.856736642927,-0.07,0.97,0.074,192.0,0.0,0.0,0.0,0.0,0.0,0.0,0.0,0.0,0.0,1674945290.774207,0.0
148.0,61959.68383070038,57665.019651057686,-21837.56492585718,-18482.590434860045,-19323.217192079686,-7461.369927092783,-27353.573126026768,-22326.665798028207,-0.07,0.97,0.074,192.0,0.0,0.0,0.0,0.0,0.0,0.0,0.0,0.0,0.0,1674945290.774225,0.0
149.0,62168.38206867958,57671.2110842718,-21859.17906274546,-18479.014155747194,-19369.574710079993,-7319.235184101485,-27311.21657028396,-22104.51180988691,-0.07,0.97,0.074,192.0,0.0,0.0,0.0,0.0,0.0,0.0,0.0,0.0,0.0,1674945290.774243,0.0
150.0,62117.01775992129,57655.073124775074,-21866.018696548785,-18496.38146118897,-19396.620320870916,-7451.535159532447,-27367.78883550034,-22285.359774274802,-0.07,0.97,0.074,192.0,0.0,0.0,0.0,0.0,0.0,0.0,0.0,0.0,0.0,1674945290.774273,0.0
151.0,61928.72666462978,57657.06243003159,-21829.786518786732,-18483.685670338353,-19345.658343512816,-7603.437614850714,-27370.85102449072,-22526.60215218093,-0.07,0.97,0.074,192.0,0.0,0.0,0.0,0.0,0.0,0.0,0.0,0.0,0.0,1674945290.833741,0.0
152.0,61936.14744378894,57666.606624914006,-21831.66406532098,-18468.7100015533,-19346.619468524394,-7478.089031945352,-27356.121224894672,-22378.18656899769,-0.07,0.97,0.074,192.0,0.0,0.0,0.0,0.0,0.0,0.0,0.0,0.0,0.0,1674945290.833775,0.0
153.0,62133.28982988475,57661.89040683394,-21860.43076043496,-18482.23280694876,-19383.253977686643,-7315.435387544083,-27316.893913375607,-22130.261019499427,-0.07,0.97,0.074,192.0,0.0,0.0,0.0,0.0,0.0,0.0,0.0,0.0,0.0,1674945290.833794,0.0
154.0,62139.883594499064,57651.38508693995,-21867.046876793727,-18501.701176369334,-19400.42011742832,-7400.550830429892,-27366.335972110748,-22240.92450629765,-0.07,0.97,0.074,192.0,0.0,0.0,0.0,0.0,0.0,0.0,0.0,0.0,0.0,1674945290.833811,0.0
155.0,61937.82382462309,57644.83602581454,-21841.61059160359,-18508.876086339485,-19361.952765220736,-7586.964379187153,-27382.161007185103,-22527.630332425873,-0.07,0.97,0.074,192.0,0.0,0.0,0.0,0.0,0.0,0.0,0.0,0.0,0.0,1674945290.833827,0.0
156.0,61892.67330082337,57654.33551720805,-21836.8049665457,-18492.648719864934,-19345.188956879254,-7507.414520670715,-27377.55654782731,-22450.15918614378,-0.076,0.964,0.074,192.0,253.0,160.0,30.0,32.0,2.0,80.0,0.0,0.0,0.0,1674945290.833843,0.0
157.0,62087.28993979573,57664.34909872402,-21854.440492920934,-18486.501990139725,-19382.11403871942,-7316.642381744669,-27325.342872779715,-22166.604955983756,-0.076,0.964,0.074,192.0,0.0,0.0,0.0,0.0,0.0,0.0,0.0,0.0,0.0,1674945290.833859,0.0
158.0,62154.47928362838,57656.63774688694,-21865.236385492848,-18497.99078678975,-19401.157724995344,-7360.518856110437,-27362.02208543087,-22195.57281679783,-0.076,0.964,0.074,192.0,0.0,0.0,0.0,0.0,0.0,0.0,0.0,0.0,0.0,1674945290.833876,0.0
159.0,61974.97242390781,57649.41813342788,-21834.547440355713,-18500.985920546762,-19353.906137216825,-7582.35991982936,-27375.053152448316,-22486.771343561573,-0.076,0.964,0.074,192.0,0.0,0.0,0.0,0.0,0.0,0.0,0.0,0.0,0.0,1674945290.833892,0.0
160.0,61892.71800431228,57660.43754344434,-21824.958541984386,-18483.976243016274,-19341.567974277496,-7568.077155122418,-27373.644992547634,-22486.100791227913,-0.076,0.964,0.074,192.0,0.0,0.0,0.0,0.0,0.0,0.0,0.0,0.0,0.0,1674945290.833909,0.0
161.0,62059.41731445996,57661.39866845592,-21849.925440540963,-18484.646795349934,-19373.598024081948,-7372.298225438384,-27324.337044279226,-22208.179200670624,-0.076,0.964,0.074,192.0,0.0,0.0,0.0,0.0,0.0,0.0,0.0,0.0,0.0,1674945290.833925,0.0
162.0,62183.46949618692,57662.829180101064,-21859.648449379023,-18484.780905816664,-19394.809829570037,-7341.6986872790685,-27343.6042479997,-22160.2794123029,-0.076,0.964,0.074,192.0,0.0,0.0,0.0,0.0,0.0,0.0,0.0,0.0,0.0,1674945290.833941,0.0
163.0,62023.073377975634,57658.51529342119,-21836.98378050134,-18490.346490186035,-19361.1704541648,-7542.640869932279,-27376.573071071278,-22444.034808163025,-0.076,0.964,0.074,192.0,0.0,0.0,0.0,0.0,0.0,0.0,0.0,0.0,0.0,1674945290.833957,0.0
164.0,61889.275835666165,57663.99147081274,-21818.118908181063,-18476.175484201372,-19349.480491814673,-7586.159716386762,-27379.679963550567,-22515.761556120106,-0.076,0.964,0.074,192.0,0.0,0.0,0.0,0.0,0.0,0.0,0.0,0.0,0.0,1674945290.833974,0.0
165.0,62026.26967743274,57670.85345636052,-21833.631018833046,-18468.620594575477,-19366.132541433875,-7393.666493137657,-27322.638311700623,-22239.82927081934,-0.076,0.964,0.074,192.0,0.0,0.0,0.0,0.0,0.0,0.0,0.0,0.0,0.0,1674945290.83399,0.0
166.0,62179.13325776259,57663.90206383492,-21865.862234337597,-18490.592359375045,-19400.442469172773,-7330.142835395674,-27335.199992084505,-22136.586563180277,-0.074,0.974,0.074,192.0,253.0,176.0,30.0,112.0,2.0,80.0,0.0,0.0,0.0,1674945290.894067,0.0
167.0,62047.28031722073,57651.0051072842,-21855.446321421423,-18502.528190914178,-19384.148047464856,-7517.450453931147,-27374.650821048122,-22396.090316306392,-0.074,0.974,0.074,192.0,0.0,0.0,0.0,0.0,0.0,0.0,0.0,0.0,0.0,1674945290.894103,0.0
168.0,61895.62373109147,57661.443371944835,-21816.822507002653,-18477.22601619077,-19329.028645638067,-7578.694233738689,-27366.201861644015,-22525.37280623589,-0.074,0.974,0.074,192.0,0.0,0.0,0.0,0.0,0.0,0.0,0.0,0.0,0.0,1674945290.894123,0.0
169.0,61991.825639227114,57667.50069469222,-21821.11404193807,-18462.69738229482,-19315.192915820233,-7386.849211078788,-27320.246675043905,-22274.765047402983,-0.074,0.974,0.074,192.0,0.0,0.0,0.0,0.0,0.0,0.0,0.0,0.0,0.0,1674945290.894142,0.0
170.0,62178.57446415121,57663.90206383492,-21852.540594642236,-18474.633213833957,-19351.223927882187,-7303.074872860298,-27309.495485960902,-22103.32716743078,-0.074,0.974,0.074,192.0,0.0,0.0,0.0,0.0,0.0,0.0,0.0,0.0,0.0,1674945290.894161,0.0
171.0,62099.73986145733,57656.72715386476,-21841.61059160359,-18484.311519183102,-19365.64080305586,-7467.650767284724,-27353.394312071123,-22317.009844423515,-0.074,0.974,0.074,192.0,0.0,0.0,0.0,0.0,0.0,0.0,0.0,0.0,0.0,1674945290.894194,0.0
172.0,61918.64602788044,57659.07408703257,-21814.18500115693,-18481.763420315197,-19345.859509212914,-7606.544507330002,-27363.363190098193,-22524.903419602328,-0.074,0.974,0.074,192.0,0.0,0.0,0.0,0.0,0.0,0.0,0.0,0.0,0.0,1674945290.894212,0.0
173.0,61962.746019690756,57667.56774992559,-21823.79625127271,-18474.968490000785,-19359.650535541838,-7454.127961889263,-27337.79279444132,-22333.527783575988,-0.074,0.974,0.074,192.0,0.0,0.0,0.0,0.0,0.0,0.0,0.0,0.0,0.0,1674945290.89423,0.0
174.0,62162.36944942111,57669.98173832676,-21851.110082997096,-18483.84213254954,-19383.723364320205,-7308.662808974124,-27310.613073183667,-22112.51373440191,-0.074,0.974,0.074,192.0,0.0,0.0,0.0,0.0,0.0,0.0,0.0,0.0,0.0,1674945290.894248,0.0
175.0,62133.736864773855,57660.41519169989,-21855.736894099344,-18499.6671676239,-19381.108210218932,-7426.188281320129,-27361.97738194196,-22275.681468925653,-0.074,0.976,0.078,192.0,253.0,176.0,30.0,128.0,2.0,112.0,0.0,0.0,0.0,1674945290.894266,0.0
176.0,61943.90349911494,57663.320918479076,-21823.706844294888,-18489.742993085743,-19349.234622625663,-7604.152870673284,-27366.89476572213,-22523.785832379563,-0.074,0.976,0.078,192.0,0.0,0.0,0.0,0.0,0.0,0.0,0.0,0.0,0.0,1674945290.894284,0.0
177.0,61947.14450206095,57678.3636424975,-21821.27050414926,-18473.403867888912,-19356.65540178483,-7492.461203630114,-27350.06390214728,-22384.780333612005,-0.074,0.976,0.078,192.0,0.0,0.0,0.0,0.0,0.0,0.0,0.0,0.0,0.0,1674945290.894302,0.0
178.0,62148.980754492375,57680.35294775402,-21849.70192309641,-18475.84020803454,-19386.942015521767,-7322.275021347406,-27312.82589588474,-22129.031673554382,-0.074,0.976,0.078,192.0,0.0,0.0,0.0,0.0,0.0,0.0,0.0,0.0,0.0,1674945290.89433,0.0
179.0,62170.9748710364,57667.47834294777,-21857.815606333686,-18489.005385518718,-19394.40749816984,-7396.125185027741,-27358.624620273666,-22220.31619790986,-0.074,0.976,0.078,192.0,0.0,0.0,0.0,0.0,0.0,0.0,0.0,0.0,0.0,1674945290.894348,0.0
180.0,61974.212464596334,57665.9584243248,-21824.019768717262,-18484.155056971915,-19348.362904591908,-7587.210248376161,-27365.5089575659,-22498.327195444966,-0.074,0.976,0.078,192.0,0.0,0.0,0.0,0.0,0.0,0.0,0.0,0.0,0.0,1674945290.894366,0.0
181.0,61919.16011800291,57670.1605522824,-21822.388091372024,-18472.867426021985,-19358.93527971927,-7524.513605179025,-27362.98321044245,-22439.519755783054,-0.074,0.976,0.078,192.0,0.0,0.0,0.0,0.0,0.0,0.0,0.0,0.0,0.0,1674945290.954432,0.0
182.0,62115.29667559823,57679.86120937601,-21839.487175880335,-18464.150245684417,-19375.654384571837,-7333.853224975255,-27305.87450335914,-22148.58944995278,-0.074,0.976,0.078,192.0,0.0,0.0,0.0,0.0,0.0,0.0,0.0,0.0,0.0,1674945290.954492,0.0
183.0,62187.53751367778,57674.787363384654,-21852.160614986493,-18477.605995846512,-19372.748657792647,-7355.445010119082,-27344.677131733555,-22169.309517062848,-0.074,0.976,0.078,192.0,0.0,0.0,0.0,0.0,0.0,0.0,0.0,0.0,0.0,1674945290.954514,0.0
184.0,62003.20267715486,57663.43267720136,-21828.08778620813,-18492.648719864934,-19327.24050608164,-7537.701134407656,-27362.871451720173,-22468.39820961931,-0.074,0.976,0.078,192.0,0.0,0.0,0.0,0.0,0.0,0.0,0.0,0.0,0.0,1674945290.954533,0.0
185.0,61911.58287663256,57668.707688892806,-21817.448355847402,-18487.060783751105,-19318.076290854966,-7527.44168370267,-27359.764559240888,-22483.507988871097,-0.07200000000000001,0.972,0.076,192.0,253.0,192.0,30.0,96.0,2.0,96.0,0.0,0.0,0.0,1674945290.954552,0.0
186.0,62081.21026530389,57681.917569865895,-21833.563963599678,-18479.03650749165,-19357.817692496505,-7351.958137984055,-27307.953215593483,-22192.98001444102,-0.07200000000000001,0.972,0.076,192.0,0.0,0.0,0.0,0.0,0.0,0.0,0.0,0.0,0.0,1674945290.95457,0.0
187.0,62207.296455776275,57684.51037222271,-21845.32098118317,-18483.484504638258,-19400.822448828512,-7344.157379169153,-27325.87931464664,-22133.882002101185,-0.07200000000000001,0.972,0.076,192.0,0.0,0.0,0.0,0.0,0.0,0.0,0.0,0.0,0.0,1674945290.954588,0.0
188.0,62046.18508174242,57672.820409872584,-21824.511507095278,-18498.549580401133,-19364.478512344183,-7553.481465993103,-27357.864660962186,-22421.191325329703,-0.07200000000000001,0.972,0.076,192.0,0.0,0.0,0.0,0.0,0.0,0.0,0.0,0.0,0.0,1674945290.954606,0.0
189.0,61908.54303938664,57681.3140727656,-21807.278312120237,-18489.98886227475,-19337.49995678663,-7582.248161107083,-27365.106626165703,-22513.101698529925,-0.07200000000000001,0.972,0.076,192.0,0.0,0.0,0.0,0.0,0.0,0.0,0.0,0.0,0.0,1674945290.954623,0.0
190.0,62040.15011073949,57692.80286941563,-21819.907047737488,-18472.353335899512,-19358.89057623036,-7396.5275164279365,-27315.038718585816,-22238.890497552216,-0.07200000000000001,0.972,0.076,192.0,0.0,0.0,0.0,0.0,0.0,0.0,0.0,0.0,0.0,1674945290.954641,0.0
191.0,62197.50639170485,57683.728061166774,-21846.66208585049,-18482.679841837864,-19393.35696618044,-7321.850338202756,-27313.630558685134,-22115.128888503183,-0.07200000000000001,0.972,0.076,192.0,0.0,0.0,0.0,0.0,0.0,0.0,0.0,0.0,0.0,1674945290.954659,0.0
192.0,62069.006212831286,57665.53374118015,-21841.051797992208,-18497.65551062292,-19382.471666630707,-7505.447567158648,-27363.139672653637,-22372.553929394955,-0.07200000000000001,0.972,0.076,192.0,0.0,0.0,0.0,0.0,0.0,0.0,0.0,0.0,0.0,1674945290.954692,0.0
193.0,61906.68784459685,57671.47930520526,-21810.429908088438,-18482.366917415493,-19352.29681161604,-7596.754443258577,-27371.23100414646,-22528.010312081613,-0.07200000000000001,0.972,0.076,192.0,0.0,0.0,0.0,0.0,0.0,0.0,0.0,0.0,0.0,1674945290.95471,0.0
194.0,61998.44175558588,57681.157610554415,-21819.147088426005,-18472.286280666147,-19345.25601211262,-7412.531365457937,-27328.606227470187,-22291.59591097783,-0.07200000000000001,0.972,0.076,192.0,0.0,0.0,0.0,0.0,0.0,0.0,0.0,0.0,0.0,1674945290.954728,0.0
195.0,62192.14197303558,57688.08665133556,-21843.17521371546,-18475.21435918979,-19349.8157679815,-7307.9252014071,-27309.339023749715,-22107.46224015501,-0.07200000000000001,0.976,0.08,192.0,253.0,192.0,30.0,128.0,2.0,128.0,0.0,0.0,0.0,1674945290.954759,0.0
196.0,62114.29084709774,57675.45791571831,-21839.17425145796,-18491.978167531273,-19353.34734360544,-7476.971444722587,-27355.85300396121,-22321.27902761448,-0.07200000000000001,0.976,0.08,192.0,0.0,0.0,0.0,0.0,0.0,0.0,0.0,0.0,0.0,1674945291.014773,0.0
197.0,61928.279629740675,57673.44625871733,-21815.79432675771,-18488.401888418422,-19321.92079090128,-7608.712626542167,-27367.94529771153,-22532.03362608357,-0.07200000000000001,0.976,0.08,192.0,0.0,0.0,0.0,0.0,0.0,0.0,0.0,0.0,0.0,1674945291.014809,0.0
198.0,61962.2766330572,57681.1129070655,-21821.851649505097,-18479.282376680658,-19339.82453820998,-7449.52350253147,-27341.726701465454,-22349.643391328264,-0.07200000000000001,0.976,0.08,192.0,0.0,0.0,0.0,0.0,0.0,0.0,0.0,0.0,0.0,1674945291.01483,0.0
199.0,62161.989469765365,57683.83981988905,-21849.47840565186,-18481.785772059655,-19379.342422406964,-7293.06129134432,-27308.959044093972,-22118.593408893754,-0.07200000000000001,0.976,0.08,192.0,0.0,0.0,0.0,0.0,0.0,0.0,0.0,0.0,0.0,1674945291.014849,0.0
200.0,62141.96230673341,57678.45304947532,-21845.052760249706,-18483.08217323806,-19395.435678414786,-7418.454577738593,-27352.097910892717,-22261.465759452076,-0.07200000000000001,0.976,0.08,192.0,0.0,0.0,0.0,0.0,0.0,0.0,0.0,0.0,0.0,1674945291.014867,0.0
201.0,61939.90253685744,57666.360755725,-21820.532896582234,-18485.13853372795,-19368.74769553515,-7606.879783496832,-27365.307791865802,-22527.809146381518,-0.07200000000000001,0.976,0.08,192.0,0.0,0.0,0.0,0.0,0.0,0.0,0.0,0.0,0.0,1674945291.014885,0.0
202.0,61927.586725662564,57673.08863080605,-21821.918704738466,-18471.034582976652,-19363.182111165777,-7514.544727151958,-27357.238812117437,-22405.209828044157,-0.07200000000000001,0.976,0.08,192.0,0.0,0.0,0.0,0.0,0.0,0.0,0.0,0.0,0.0,1674945291.014903,0.0
203.0,62134.45212059643,57680.68822392085,-21841.051797992208,-18464.954908484808,-19380.571768352005,-7331.64040227418,-27306.589759181712,-22134.731368390487,-0.07200000000000001,0.976,0.08,192.0,0.0,0.0,0.0,0.0,0.0,0.0,0.0,0.0,0.0,1674945291.014921,0.0
204.0,62165.58810062267,57665.623148157974,-21853.27820220926,-18481.875179037474,-19394.8768848034,-7391.7665948589565,-27347.381692812647,-22213.409508873166,-0.07200000000000001,0.976,0.08,192.0,0.0,0.0,0.0,0.0,0.0,0.0,0.0,0.0,0.0,1674945291.014938,0.0
205.0,61967.842217426565,57655.74367710873,-21827.059605963186,-18486.56904537309,-19357.97415470769,-7581.398794817781,-27366.715951766488,-22501.88112281336,-0.078,0.97,0.08,192.0,253.0,144.0,30.0,80.0,2.0,128.0,0.0,0.0,0.0,1674945291.014956,0.0
206.0,61911.00173127672,57666.29370049164,-21817.113079680574,-18474.141475455937,-19317.20457282121,-7527.48638719158,-27361.530347052856,-22453.1990233897,-0.078,0.97,0.08,192.0,0.0,0.0,0.0,0.0,0.0,0.0,0.0,0.0,0.0,1674945291.014974,0.0
207.0,62110.55810577371,57679.28006402017,-21831.5523065987,-18468.28531840865,-19325.25120082512,-7339.150588411163,-27302.700555646486,-22165.420313527622,-0.078,0.97,0.08,192.0,0.0,0.0,0.0,0.0,0.0,0.0,0.0,0.0,0.0,1674945291.014992,0.0
208.0,62198.71338590544,57673.15568603941,-21845.119815483074,-18484.04329824964,-19371.83223626998,-7316.955306167043,-27336.98813164093,-22169.220110085025,-0.078,0.97,0.08,192.0,0.0,0.0,0.0,0.0,0.0,0.0,0.0,0.0,0.0,1674945291.01501,0.0
209.0,62017.70895930636,57660.48224693326,-21822.253980905294,-18494.593321632543,-19351.179224393276,-7542.283242020994,-27365.106626165703,-22467.370029374368,-0.078,0.97,0.08,192.0,0.0,0.0,0.0,0.0,0.0,0.0,0.0,0.0,0.0,1674945291.015028,0.0
210.0,61910.62175162098,57666.31605223609,-21808.909989465476,-18479.662356336397,-19338.125805631378,-7576.146134870784,-27368.61585004519,-22494.68386109875,-0.078,0.97,0.08,192.0,0.0,0.0,0.0,0.0,0.0,0.0,0.0,0.0,0.0,1674945291.015046,0.0
211.0,62067.687459908426,57676.41904072989,-21820.979931471342,-18469.604071331512,-19348.295849358543,-7369.861885292756,-27310.25544527238,-22205.005252957973,-0.078,0.97,0.08,192.0,0.0,0.0,0.0,0.0,0.0,0.0,0.0,0.0,0.0,1674945291.074923,0.0
212.0,62202.5802376962,57676.329633752066,-21834.435681633437,-18474.543806856134,-19365.864320500412,-7333.048562174865,-27321.94540762251,-22130.23866775497,-0.078,0.97,0.08,192.0,0.0,0.0,0.0,0.0,0.0,0.0,0.0,0.0,0.0,1674945291.07496,0.0
213.0,62050.32015446665,57660.661060888895,-21820.018806459764,-18481.60695810401,-19356.923622718292,-7524.290087734472,-27356.90353595061,-22408.562589712452,-0.078,0.97,0.08,192.0,0.0,0.0,0.0,0.0,0.0,0.0,0.0,0.0,0.0,1674945291.07498,0.0
214.0,61908.498335897726,57664.0585260461,-21802.74090799581,-18472.867426021985,-19329.363921804896,-7574.02271914753,-27360.658629019097,-22508.184314749757,-0.078,0.97,0.08,192.0,0.0,0.0,0.0,0.0,0.0,0.0,0.0,0.0,0.0,1674945291.075014,0.0
215.0,62026.0908634771,57674.96617734029,-21813.782669756733,-18462.56327182809,-19354.911965717314,-7404.529440942936,-27316.15630580858,-22245.64072437772,-0.074,0.98,0.082,192.0,253.0,176.0,30.0,160.0,2.0,144.0,0.0,0.0,0.0,1674945291.075033,0.0
216.0,62190.53264743479,57668.75239238172,-21844.069283493674,-18476.33194641256,-19357.571823307495,-7324.040809159375,-27317.676224431543,-22114.43598442507,-0.074,0.98,0.082,192.0,0.0,0.0,0.0,0.0,0.0,0.0,0.0,0.0,0.0,1674945291.075051,0.0
217.0,62067.97803258635,57647.83115957155,-21839.822452047167,-18498.259007723216,-19363.427980354783,-7499.613761855813,-27365.955992455005,-22371.458693916644,-0.074,0.98,0.082,192.0,0.0,0.0,0.0,0.0,0.0,0.0,0.0,0.0,0.0,1674945291.075069,0.0
218.0,61896.763670058695,57650.13338925045,-21814.475573834847,-18487.396059917934,-19355.11313141741,-7595.256876380072,-27378.69648679453,-22543.723588433695,-0.074,0.98,0.082,192.0,0.0,0.0,0.0,0.0,0.0,0.0,0.0,0.0,0.0,1674945291.075087,0.0
219.0,61982.34849957806,57665.3102237356,-21815.347291868602,-18462.89854799492,-19330.05682588301,-7416.018237592964,-27333.925942650552,-22300.04487038194,-0.074,0.98,0.082,192.0,0.0,0.0,0.0,0.0,0.0,0.0,0.0,0.0,0.0,1674945291.075105,0.0
220.0,62174.59585363816,57660.41519169989,-21842.102329981608,-18470.721658554277,-19352.229756382676,-7305.913544406122,-27311.238922028417,-22106.456411654523,-0.074,0.98,0.082,192.0,0.0,0.0,0.0,0.0,0.0,0.0,0.0,0.0,0.0,1674945291.075122,0.0
221.0,62112.05567265221,57658.850569588016,-21830.926457753954,-18478.36595515799,-19375.31910840501,-7462.666328271191,-27358.98224818495,-22305.677509984675,-0.074,0.98,0.082,192.0,0.0,0.0,0.0,0.0,0.0,0.0,0.0,0.0,0.0,1674945291.07514,0.0
222.0,61922.64699013794,57664.572616168574,-21799.32109109415,-18473.04623997763,-19366.31135538952,-7602.4988415835915,-27365.576012799265,-22527.071538814493,-0.074,0.98,0.082,192.0,0.0,0.0,0.0,0.0,0.0,0.0,0.0,0.0,0.0,1674945291.075158,0.0
223.0,61952.57597596359,57675.52497095168,-21802.964425440365,-18460.059876449093,-19362.57861406548,-7450.886958943243,-27340.899686920606,-22349.03989422797,-0.074,0.98,0.082,192.0,0.0,0.0,0.0,0.0,0.0,0.0,0.0,0.0,0.0,1674945291.075176,0.0
224.0,62156.08860922916,57677.022537830184,-21828.870097264065,-18468.21826317528,-19375.69908806075,-7276.029262069376,-27302.63350041312,-22116.380586192678,-0.074,0.98,0.082,192.0,0.0,0.0,0.0,0.0,0.0,0.0,0.0,0.0,0.0,1674945291.075194,0.0
225.0,62140.800016021734,57668.95355808182,-21833.429853132948,-18481.629309848468,-19359.02468669709,-7406.049359565897,-27353.662533004586,-22255.16256751568,-0.07,0.972,0.076,192.0,253.0,208.0,30.0,96.0,2.0,96.0,0.0,0.0,0.0,1674945291.075212,0.0
226.0,61941.08717931357,57665.153761524416,-21804.64080627451,-18479.03650749165,-19297.177409789256,-7588.350187343382,-27363.519652309376,-22516.65562589832,-0.07,0.972,0.076,192.0,0.0,0.0,0.0,0.0,0.0,0.0,0.0,0.0,0.0,1674945291.1347,0.0
227.0,61922.78110060467,57672.59689242803,-21799.45520156088,-18462.004478216706,-19331.844965439435,-7494.070529230897,-27352.92492543756,-22407.71322342315,-0.07,0.972,0.076,192.0,0.0,0.0,0.0,0.0,0.0,0.0,0.0,0.0,0.0,1674945291.134735,0.0
228.0,62126.964286203896,57676.12846805197,-21825.763204784776,-18459.814007260087,-19381.667003830316,-7320.218660857518,-27307.50618070438,-22139.693455659566,-0.07,0.972,0.076,192.0,0.0,0.0,0.0,0.0,0.0,0.0,0.0,0.0,0.0,1674945291.134756,0.0
229.0,62166.70568784544,57662.96329056779,-21840.26948693627,-18473.314460911093,-19395.770954581614,-7368.297263180883,-27353.61782951568,-22206.636930303208,-0.07,0.972,0.076,192.0,0.0,0.0,0.0,0.0,0.0,0.0,0.0,0.0,0.0,1674945291.134775,0.0
230.0,61969.518598260714,57652.79324684063,-21813.35798661208,-18473.292109166636,-19367.048962956545,-7566.7360504551,-27373.17560591407,-22494.08036399846,-0.07,0.972,0.076,192.0,0.0,0.0,0.0,0.0,0.0,0.0,0.0,0.0,0.0,1674945291.134793,0.0
231.0,61899.37882415996,57658.157665509905,-21808.082974920628,-18463.412638117392,-19348.362904591908,-7534.191910528173,-27370.806321001808,-22460.95507871569,-0.07,0.972,0.076,192.0,0.0,0.0,0.0,0.0,0.0,0.0,0.0,0.0,0.0,1674945291.134811,0.0
232.0,62093.59313173212,57680.55411345412,-21815.83903024662,-18446.64882977591,-19353.72732326118,-7334.076742419808,-27304.622805669645,-22161.10642684775,-0.07,0.972,0.076,192.0,0.0,0.0,0.0,0.0,0.0,0.0,0.0,0.0,0.0,1674945291.13483,0.0
233.0,62182.128391519596,57667.92537783687,-21836.626152590055,-18469.961699242795,-19383.41043989783,-7328.935841195088,-27335.110585106682,-22157.776016923908,-0.07,0.972,0.076,192.0,0.0,0.0,0.0,0.0,0.0,0.0,0.0,0.0,0.0,1674945291.134848,0.0
234.0,62001.0345579427,57655.16253175289,-21817.135431425027,-18482.813952304597,-19360.097570430946,-7546.150093811762,-27369.487568078945,-22460.95507871569,-0.07,0.972,0.076,192.0,0.0,0.0,0.0,0.0,0.0,0.0,0.0,0.0,0.0,1674945291.134866,0.0
235.0,61887.19712343182,57664.17028476838,-21798.44937306039,-18469.537016098144,-19346.194785379743,-7538.818721630421,-27371.633335546656,-22498.97539603417,-0.066,0.976,0.076,192.0,253.0,240.0,30.0,128.0,2.0,96.0,0.0,0.0,0.0,1674945291.134904,0.0
236.0,62043.212299729865,57670.47347670478,-21809.111155165574,-18465.267832907182,-19361.237509398165,-7338.949422711065,-27309.36137549417,-22216.426994374633,-0.066,0.976,0.076,192.0,0.0,0.0,0.0,0.0,0.0,0.0,0.0,0.0,0.0,1674945291.13494,0.0
237.0,62182.39661245306,57665.93607258035,-21830.948809498408,-18476.376649901467,-19385.153875965345,-7312.194384598063,-27325.521686735356,-22140.34165624877,-0.066,0.976,0.076,192.0,0.0,0.0,0.0,0.0,0.0,0.0,0.0,0.0,0.0,1674945291.134974,0.0
238.0,62033.93632578091,57651.76506659568,-21817.89539073651,-18490.570007630587,-19362.60096580994,-7503.39120666876,-27364.145501154126,-22424.20881083117,-0.066,0.976,0.076,192.0,0.0,0.0,0.0,0.0,0.0,0.0,0.0,0.0,0.0,1674945291.134992,0.0
239.0,61889.63346357745,57657.21889224278,-21797.912931193463,-18477.918920268887,-19325.675883969772,-7583.589265774402,-27369.331105867757,-22534.961704607216,-0.066,0.976,0.076,192.0,0.0,0.0,0.0,0.0,0.0,0.0,0.0,0.0,0.0,1674945291.135011,0.0
240.0,62009.63997955799,57668.73004063727,-21808.75352725429,-18467.547710841623,-19333.946029418235,-7399.589705418313,-27317.65387268709,-22271.88167236825,-0.066,0.976,0.076,192.0,0.0,0.0,0.0,0.0,0.0,0.0,0.0,0.0,0.0,1674945291.135029,0.0
241.0,62178.59681589566,57664.729078379765,-21838.593106102122,-18480.109391225506,-19369.105323446434,-7324.040809159375,-27320.336082021724,-22128.159955520627,-0.066,0.976,0.076,192.0,0.0,0.0,0.0,0.0,0.0,0.0,0.0,0.0,0.0,1674945291.194159,0.0
242.0,62065.653451162994,57652.43561892935,-21830.881754265043,-18496.98495828926,-19374.69325956026,-7476.8149825114,-27372.08037043576,-22378.544196908977,-0.066,0.976,0.076,192.0,0.0,0.0,0.0,0.0,0.0,0.0,0.0,0.0,0.0,1674945291.194198,0.0
243.0,61882.16798092938,57647.56293863809,-21810.31814936616,-18491.195856475337,-19329.49803227163,-7595.770966502544,-27381.13282694016,-22558.945126407758,-0.066,0.976,0.076,192.0,0.0,0.0,0.0,0.0,0.0,0.0,0.0,0.0,0.0,1674945291.194221,0.0
244.0,61950.56431896261,57651.63095612895,-21820.063509948675,-18473.5603301001,-19343.132596389365,-7450.641089754235,-27343.470137532968,-22332.49960333104,-0.07,0.974,0.07,192.0,253.0,208.0,30.0,112.0,2.0,48.0,0.0,0.0,0.0,1674945291.194241,0.0
245.0,62154.59104235066,57655.27429047517,-21839.263658435782,-18469.112332953493,-19387.143181221865,-7307.0087798844315,-27315.64221568611,-22125.008359552427,-0.07,0.974,0.07,192.0,0.0,0.0,0.0,0.0,0.0,0.0,0.0,0.0,0.0,1674945291.194261,0.0
246.0,62092.54259974273,57640.20921471229,-21837.967257257376,-18481.60695810401,-19378.493056117662,-7447.489493786036,-27364.301963365313,-22317.07689965688,-0.07,0.974,0.07,192.0,0.0,0.0,0.0,0.0,0.0,0.0,0.0,0.0,0.0,1674945291.194281,0.0
247.0,61895.9590072583,57641.55031937961,-21807.7476987538,-18473.269757422182,-19348.273497614085,-7584.662149508256,-27373.443826847535,-22548.1715855803,-0.07,0.974,0.07,192.0,0.0,0.0,0.0,0.0,0.0,0.0,0.0,0.0,0.0,1674945291.194301,0.0
248.0,61927.69848438484,57663.611491157,-21799.142277138508,-18446.26885012017,-19331.889668928347,-7448.607081008802,-27339.55858225329,-22370.609327627342,-0.07,0.974,0.07,192.0,0.0,0.0,0.0,0.0,0.0,0.0,0.0,0.0,0.0,1674945291.194322,0.0
249.0,62138.16251017601,57666.29370049164,-21823.952713483897,-18458.115274681484,-19364.724381533193,-7301.152622837141,-27301.918244590554,-22127.489403186966,-0.07,0.974,0.07,192.0,0.0,0.0,0.0,0.0,0.0,0.0,0.0,0.0,0.0,1674945291.194341,0.0
250.0,62137.15668167552,57655.609566642,-21834.234515933338,-18480.310556925604,-19373.44156187076,-7413.157214302685,-27352.097910892717,-22259.74467512902,-0.07,0.974,0.07,192.0,0.0,0.0,0.0,0.0,0.0,0.0,0.0,0.0,0.0,1674945291.194361,0.0
251.0,61938.94141184586,57653.12852300746,-21810.139335410517,-18481.40579240391,-19339.757482976616,-7592.529963556524,-27366.067751177285,-22528.74791964864,-0.07,0.974,0.07,192.0,0.0,0.0,0.0,0.0,0.0,0.0,0.0,0.0,0.0,1674945291.194381,0.0
252.0,61912.67811211087,57667.880674347965,-21806.51835280876,-18466.98891723024,-19305.358148259897,-7496.708035076623,-27358.244640617926,-22431.58488650142,-0.07,0.974,0.07,192.0,0.0,0.0,0.0,0.0,0.0,0.0,0.0,0.0,0.0,1674945291.194401,0.0
253.0,62116.32485584317,57673.22274127278,-21829.495946108815,-18467.70417305281,-19344.630163267873,-7315.681256733091,-27304.600453925188,-22157.15016807916,-0.07,0.974,0.07,192.0,0.0,0.0,0.0,0.0,0.0,0.0,0.0,0.0,0.0,1674945291.194421,0.0
254.0,62162.749429076845,57659.56582541059,-21848.316114940182,-18490.6147111195,-19381.778762552593,-7372.231170205018,-27348.678093991053,-22219.39977638719,-0.08,0.968,0.076,192.0,253.0,128.0,30.0,64.0,2.0,96.0,0.0,0.0,0.0,1674945291.19444,0.0
255.0,61968.73628720478,57654.73784860824,-21816.77780351374,-18490.83822856405,-19356.610698295917,-7565.506704510058,-27365.419550588078,-22510.017157795093,-0.08,0.968,0.076,192.0,0.0,0.0,0.0,0.0,0.0,0.0,0.0,0.0,0.0,1674945291.194481,0.0
0.0,61894.72966131326,57663.99147081274,-21805.13254465253,-18472.80037078862,-19351.44744532674,-7537.522320452013,-27359.384579585145,-22482.189235948234,-0.08,0.968,0.076,192.0,0.0,0.0,0.0,0.0,0.0,0.0,0.0,0.0,0.0,1674945291.254515,0.0
1.0,62073.45420997789,57661.93511032285,-21828.98185598634,-18473.023888233172,-19366.579576322983,-7322.252669602951,-27309.003747582883,-22194.656395275164,-0.08,0.968,0.076,192.0,0.0,0.0,0.0,0.0,0.0,0.0,0.0,0.0,0.0,1674945291.254555,0.0
2.0,62169.54435939126,57653.84377883003,-21846.080940494652,-18489.005385518718,-19408.93613206579,-7332.8920999636775,-27345.705311978498,-22183.234653858504,-0.08,0.968,0.076,192.0,0.0,0.0,0.0,0.0,0.0,0.0,0.0,0.0,0.0,1674945291.254578,0.0
3.0,61990.61864502652,57642.86907230247,-21825.383225129037,-18495.37563268848,-19365.59609956695,-7564.567931242935,-27374.494358836935,-22476.087209711935,-0.08,0.968,0.076,192.0,0.0,0.0,0.0,0.0,0.0,0.0,0.0,0.0,0.0,1674945291.254599,0.0
4.0,61873.16022791389,57650.60277588401,-21806.004262686285,-18473.828551033563,-19313.00244486361,-7579.364786072349,-27370.359286112704,-22514.778079364074,-0.08,0.968,0.076,192.0,0.0,0.0,0.0,0.0,0.0,0.0,0.0,0.0,0.0,1674945291.254619,0.0
5.0,62026.26967743274,57659.409363199404,-21819.907047737488,-18465.759571285198,-19326.167622347788,-7382.110641254264,-27309.339023749715,-22228.228715447036,-0.08,0.968,0.076,192.0,0.0,0.0,0.0,0.0,0.0,0.0,0.0,0.0,0.0,1674945291.254639,0.0
6.0,62171.46660941442,57654.53668290815,-21845.030408505252,-18480.332908670058,-19385.578559109996,-7314.429559043594,-27324.35939602368,-22140.09578705976,-0.08,0.968,0.076,192.0,0.0,0.0,0.0,0.0,0.0,0.0,0.0,0.0,0.0,1674945291.254658,0.0
7.0,62034.56217462566,57646.87003455997,-21824.22093441736,-18484.736202327753,-19357.705933774225,-7492.192982696651,-27357.88701270664,-22406.819153644938,-0.08,0.968,0.076,192.0,0.0,0.0,0.0,0.0,0.0,0.0,0.0,0.0,0.0,1674945291.254679,0.0
8.0,61886.70538505381,57653.86613057448,-21800.7963062282,-18468.66529806439,-19337.075273641978,-7575.319120325938,-27362.89380346463,-22528.65851267082,-0.074,0.976,0.068,192.0,253.0,176.0,30.0,128.0,2.0,32.0,0.0,0.0,0.0,1674945291.254699,0.0
9.0,61986.55062753566,57657.44240968733,-21823.438623361424,-18470.74401029873,-19351.335686604463,-7397.17571701714,-27336.474041518457,-22288.287852798447,-0.074,0.976,0.068,192.0,0.0,0.0,0.0,0.0,0.0,0.0,0.0,0.0,0.0,1674945291.254719,0.0
10.0,62168.65028961305,57654.22375848577,-21852.048856264217,-18481.070516237083,-19374.760314793624,-7299.230372813985,-27331.84723041621,-22139.33582774828,-0.074,0.976,0.068,192.0,0.0,0.0,0.0,0.0,0.0,0.0,0.0,0.0,0.0,1674945291.254739,0.0
11.0,62075.778791401244,57654.26846197468,-21835.352103156103,-18483.372745915978,-19386.494980632662,-7480.190095924151,-27370.40398960161,-22365.781350824996,-0.074,0.976,0.068,192.0,0.0,0.0,0.0,0.0,0.0,0.0,0.0,0.0,0.0,1674945291.254759,0.0
12.0,61902.44101315034,57656.50363642021,-21811.391033100015,-18478.94710051383,-19352.833253482968,-7583.477507052125,-27371.767446013386,-22556.12880660639,-0.074,0.976,0.068,192.0,0.0,0.0,0.0,0.0,0.0,0.0,0.0,0.0,0.0,1674945291.254779,0.0
13.0,61973.05017388466,57665.53374118015,-21818.23066690334,-18466.743048041233,-19334.25895384061,-7426.903537142699,-27337.613980485676,-22342.37907438029,-0.074,0.976,0.068,192.0,0.0,0.0,0.0,0.0,0.0,0.0,0.0,0.0,0.0,1674945291.254798,0.0
14.0,62172.137161748076,57667.36658422549,-21839.12954796905,-18467.21243467479,-19325.78764269205,-7301.242029814963,-27310.07663131674,-22123.399033951646,-0.074,0.976,0.068,192.0,0.0,0.0,0.0,0.0,0.0,0.0,0.0,0.0,0.0,1674945291.254818,0.0
15.0,62110.62516100707,57655.94484280883,-21832.379321143548,-18479.774115058677,-19377.59898633945,-7439.554624504402,-27357.104701650704,-22300.626015737776,-0.074,0.976,0.068,192.0,0.0,0.0,0.0,0.0,0.0,0.0,0.0,0.0,0.0,1674945291.314743,0.0
16.0,61904.855001551514,57645.10424674801,-21809.289969121215,-18486.27847269517,-19358.0188581966,-7608.757330031077,-27370.493396579433,-22549.959725136727,-0.074,0.976,0.068,192.0,0.0,0.0,0.0,0.0,0.0,0.0,0.0,0.0,0.0,1674945291.314782,0.0
17.0,61909.99590277623,57647.96527003829,-21815.056719190685,-18475.192007445337,-19363.87501524389,-7467.516656817992,-27355.78594872784,-22398.14667679628,-0.074,0.976,0.068,192.0,0.0,0.0,0.0,0.0,0.0,0.0,0.0,0.0,0.0,1674945291.314805,0.0
18.0,62118.87295471108,57657.665927131886,-21835.5532688562,-18470.162864942893,-19376.257881672132,-7296.972846623999,-27312.423564484547,-22140.498118459956,-0.07200000000000001,0.974,0.07200000000000001,192.0,253.0,192.0,30.0,112.0,2.0,64.0,0.0,0.0,0.0,1674945291.314826,0.0
19.0,62125.33260885866,57646.73592409324,-21848.874908551563,-18487.887798295953,-19385.489152132173,-7420.309772528383,-27364.190204643037,-22257.330686727844,-0.07200000000000001,0.974,0.07200000000000001,192.0,0.0,0.0,0.0,0.0,0.0,0.0,0.0,0.0,0.0,1674945291.314846,0.0
20.0,61930.96183907531,57644.523101392166,-21819.728233781843,-18488.80421981862,-19353.72732326118,-7591.367672844848,-27376.260146648903,-22536.705140674727,-0.07200000000000001,0.974,0.07200000000000001,192.0,0.0,0.0,0.0,0.0,0.0,0.0,0.0,0.0,0.0,1674945291.314866,0.0
21.0,61899.200010204324,57659.58817715504,-21814.14029766802,-18473.94030975584,-19334.080139884965,-7506.811023570422,-27360.055131918805,-22446.91818319776,-0.07200000000000001,0.974,0.07200000000000001,192.0,0.0,0.0,0.0,0.0,0.0,0.0,0.0,0.0,0.0,1674945291.314886,0.0
22.0,62098.62227423457,57661.59983415602,-21842.683475337446,-18478.07538248007,-19356.923622718292,-7325.493672548971,-27307.483828959925,-22172.729333964508,-0.07200000000000001,0.974,0.07200000000000001,192.0,0.0,0.0,0.0,0.0,0.0,0.0,0.0,0.0,0.0,1674945291.314921,0.0
23.0,62160.15662672003,57654.29081371913,-21857.56973714468,-18489.787696574655,-19360.343439619952,-7348.113637937741,-27350.08625389174,-22217.76809904195,-0.07200000000000001,0.974,0.07200000000000001,192.0,0.0,0.0,0.0,0.0,0.0,0.0,0.0,0.0,0.0,1674945291.314942,0.0
24.0,61979.398069309966,57651.63095612895,-21822.902181494497,-18482.90335928242,-19323.172488590775,-7550.978070614108,-27359.27282086287,-22501.63525362435,-0.07200000000000001,0.974,0.07200000000000001,192.0,0.0,0.0,0.0,0.0,0.0,0.0,0.0,0.0,0.0,1674945291.314962,0.0
25.0,61891.1086787115,57654.5590346526,-21816.12960292454,-18475.37082140098,-19349.748712748136,-7538.1034658078515,-27368.258222133903,-22491.152285474815,-0.07200000000000001,0.974,0.07200000000000001,192.0,0.0,0.0,0.0,0.0,0.0,0.0,0.0,0.0,0.0,1674945291.314981,0.0
26.0,62056.95862256988,57655.72132536428,-21839.487175880335,-18476.75662955721,-19385.26563468762,-7356.137914197197,-27321.2972070333,-22204.91584598015,-0.07200000000000001,0.974,0.07200000000000001,192.0,0.0,0.0,0.0,0.0,0.0,0.0,0.0,0.0,0.0,1674945291.315001,0.0
27.0,62165.09636224465,57652.68148811835,-21851.33360044165,-18483.171580215883,-19394.765126081125,-7342.771571012923,-27336.295227562816,-22168.616612984733,-0.07200000000000001,0.974,0.07200000000000001,192.0,0.0,0.0,0.0,0.0,0.0,0.0,0.0,0.0,0.0,1674945291.315021,0.0
28.0,61988.42817406991,57633.97307800926,-21836.69320782342,-18498.996615290238,-19352.632087782873,-7547.804122901455,-27373.37677161417,-22468.82289276396,-0.07,0.978,0.074,192.0,253.0,208.0,30.0,144.0,2.0,80.0,0.0,0.0,0.0,1674945291.315041,0.0
29.0,61864.800675487604,57639.96334552328,-21818.118908181063,-18486.680804095366,-19350.44161682625,-7577.8448674493875,-27384.41853337509,-22536.749844163638,-0.07,0.978,0.074,192.0,0.0,0.0,0.0,0.0,0.0,0.0,0.0,0.0,0.0,1674945291.315061,0.0
30.0,62011.7857470257,57649.23931947224,-21831.21703043187,-18478.343603413537,-19363.852663499434,-7385.396347689194,-27329.835573415232,-22254.715532626575,-0.07,0.978,0.074,192.0,0.0,0.0,0.0,0.0,0.0,0.0,0.0,0.0,0.0,1674945291.375038,0.0
31.0,62166.43746691197,57646.51240664869,-21854.909879554496,-18487.060783751105,-19381.711707319228,-7320.844509702267,-27332.8530589167,-22150.981086609496,-0.07,0.978,0.074,192.0,0.0,0.0,0.0,0.0,0.0,0.0,0.0,0.0,0.0,1674945291.375074,0.0
32.0,62031.544689124195,57635.64945884341,-21844.918649782976,-18498.057842023118,-19369.530006591085,-7502.34067467936,-27377.355382127214,-22420.744290440594,-0.07,0.978,0.074,192.0,0.0,0.0,0.0,0.0,0.0,0.0,0.0,0.0,0.0,1674945291.375095,0.0
33.0,61874.0542976921,57639.18103446735,-21827.953675741395,-18492.872237309486,-19342.573802777984,-7585.399757075282,-27389.872359022185,-22563.57193751001,-0.07,0.978,0.074,192.0,0.0,0.0,0.0,0.0,0.0,0.0,0.0,0.0,0.0,1674945291.375114,0.0
34.0,61978.59340650957,57654.17905499686,-21839.710693324887,-18477.27071967968,-19347.44648306924,-7402.8083566198775,-27351.248544603415,-22312.204219365623,-0.07,0.978,0.074,192.0,0.0,0.0,0.0,0.0,0.0,0.0,0.0,0.0,0.0,1674945291.375132,0.0
35.0,62169.16437973552,57661.04104054464,-21855.17810048796,-18480.914054025896,-19389.803038812046,-7294.268285544907,-27333.814183928276,-22141.682760916086,-0.07,0.978,0.074,192.0,0.0,0.0,0.0,0.0,0.0,0.0,0.0,0.0,0.0,1674945291.37515,0.0
36.0,62078.170428057965,57650.379258439454,-21843.421082904468,-18497.834324578565,-19396.620320870916,-7457.257206113006,-27378.629431561167,-22373.29153696198,-0.07,0.978,0.074,192.0,0.0,0.0,0.0,0.0,0.0,0.0,0.0,0.0,0.0,1674945291.375168,0.0
37.0,61900.20583870481,57652.837950329544,-21815.570809313158,-18490.94998728633,-19340.003352165622,-7576.771983715533,-27385.22319617548,-22571.41739981382,-0.07,0.978,0.074,192.0,0.0,0.0,0.0,0.0,0.0,0.0,0.0,0.0,0.0,1674945291.375185,0.0
38.0,61960.55554873414,57666.89719759193,-21814.27440813475,-18471.638080076944,-19344.78662547906,-7433.832577923844,-27344.431262544545,-22360.66280134473,-0.068,0.98,0.07,192.0,253.0,224.0,30.0,160.0,2.0,48.0,0.0,0.0,0.0,1674945291.375203,0.0
39.0,62160.670716842505,57666.405459213915,-21832.155803698995,-18469.51466435369,-19382.002279997145,-7298.5598204803255,-27307.55088419329,-22134.843127112763,-0.068,0.98,0.07,192.0,0.0,0.0,0.0,0.0,0.0,0.0,0.0,0.0,0.0,1674945291.375221,0.0
40.0,62115.833117465154,57654.33551720805,-21831.5523065987,-18486.479638395267,-19380.057678229532,-7429.295173799417,-27356.88118420615,-22306.683338485163,-0.068,0.98,0.07,192.0,0.0,0.0,0.0,0.0,0.0,0.0,0.0,0.0,0.0,1674945291.375239,0.0
41.0,61913.28160921116,57654.3578689525,-21804.014957429765,-18482.545731371134,-19350.44161682625,-7607.6620945527675,-27373.421475103078,-22554.206556583234,-0.068,0.98,0.07,192.0,0.0,0.0,0.0,0.0,0.0,0.0,0.0,0.0,0.0,1674945291.375257,0.0
42.0,61919.271876725186,57663.29856673462,-21809.312320865673,-18471.839245777042,-19325.988808392147,-7493.467032130603,-27358.624620273666,-22409.613121701852,-0.068,0.98,0.07,192.0,0.0,0.0,0.0,0.0,0.0,0.0,0.0,0.0,0.0,1674945291.375275,0.0
43.0,62121.66692276799,57665.13140977996,-21842.594068359624,-18481.696365081832,-19338.326971331477,-7323.906698692644,-27318.45853548748,-22162.000496625962,-0.068,0.98,0.07,192.0,0.0,0.0,0.0,0.0,0.0,0.0,0.0,0.0,0.0,1674945291.375314,0.0
44.0,62130.71937927239,57652.770895096175,-21857.10035051112,-18504.18222000387,-19381.912873019322,-7380.657777864669,-27366.045399432827,-22276.508483470498,-0.068,0.98,0.07,192.0,0.0,0.0,0.0,0.0,0.0,0.0,0.0,0.0,0.0,1674945291.375332,0.0
45.0,61937.15327228943,57656.03424978665,-21821.538725082723,-18497.141420500448,-19366.087837944968,-7547.781771157,-27376.349553626726,-22547.79160592456,-0.068,0.98,0.07,192.0,0.0,0.0,0.0,0.0,0.0,0.0,0.0,0.0,0.0,1674945291.435278,0.0
46.0,61893.902646768416,57667.18777026985,-21818.7000535369,-18477.31542316859,-19370.669945558304,-7497.982084510575,-27373.980268714462,-22469.78401777554,-0.068,0.98,0.07,192.0,0.0,0.0,0.0,0.0,0.0,0.0,0.0,0.0,0.0,1674945291.435315,0.0
47.0,62100.119841113075,57680.21883728729,-21836.022655489764,-18464.75374278471,-19377.375468894897,-7340.514044822937,-27317.20683779798,-22176.037392143895,-0.068,0.98,0.07,192.0,0.0,0.0,0.0,0.0,0.0,0.0,0.0,0.0,0.0,1674945291.435335,0.0
48.0,62158.94963251944,57664.50556093521,-21862.129493013563,-18488.111315740505,-19399.21312322773,-7362.374050900227,-27361.686809264043,-22213.185991428614,-0.08,0.976,0.08,192.0,253.0,128.0,30.0,128.0,2.0,128.0,0.0,0.0,0.0,1674945291.435355,0.0
49.0,61973.0278221402,57659.14114226594,-21835.5532688562,-18489.742993085743,-19338.885764942857,-7535.801236128955,-27376.84129200474,-22500.02592802357,-0.08,0.976,0.08,192.0,0.0,0.0,0.0,0.0,0.0,0.0,0.0,0.0,0.0,1674945291.435373,0.0
50.0,61880.78217277315,57665.66785164689,-21827.484289107837,-18483.171580215883,-19337.209384108708,-7534.34837273936,-27379.411742617103,-22501.299977457522,-0.08,0.976,0.08,192.0,0.0,0.0,0.0,0.0,0.0,0.0,0.0,0.0,0.0,1674945291.435391,0.0
51.0,62058.56794817066,57670.83110461606,-21846.41621666148,-18477.963623757794,-19376.41434388332,-7363.491638122993,-27321.230151799937,-22206.949854725583,-0.08,0.976,0.08,192.0,0.0,0.0,0.0,0.0,0.0,0.0,0.0,0.0,0.0,1674945291.435409,0.0
52.0,62177.88156007309,57664.572616168574,-21862.688286624943,-18486.36787967299,-19381.845817785957,-7341.78809425689,-27338.306884563794,-22160.6817437031,-0.08,0.976,0.08,192.0,0.0,0.0,0.0,0.0,0.0,0.0,0.0,0.0,0.0,1674945291.435427,0.0
53.0,62015.451433116374,57656.749505609216,-21837.855498535097,-18488.692461096343,-19330.883840427858,-7554.084963093396,-27360.32335285227,-22438.603334260384,-0.08,0.976,0.08,192.0,0.0,0.0,0.0,0.0,0.0,0.0,0.0,0.0,0.0,1674945291.435445,0.0
54.0,61880.93863498433,57656.973023053775,-21824.153879183996,-18478.544769113632,-19326.569953747985,-7587.858448965365,-27365.620716288176,-22507.759631605106,-0.08,0.976,0.08,192.0,0.0,0.0,0.0,0.0,0.0,0.0,0.0,0.0,0.0,1674945291.435463,0.0
55.0,62028.61661060055,57675.4132122294,-21827.149012941005,-18461.803312516608,-19339.466910298695,-7369.616016103747,-27303.527570191334,-22215.264703662957,-0.08,0.976,0.08,192.0,0.0,0.0,0.0,0.0,0.0,0.0,0.0,0.0,0.0,1674945291.435481,0.0
56.0,62184.09534503167,57668.81944761508,-21856.496853410823,-18479.99763250323,-19372.346326392453,-7322.207966114041,-27313.608206940677,-22101.22610345198,-0.08,0.976,0.08,192.0,0.0,0.0,0.0,0.0,0.0,0.0,0.0,0.0,0.0,1674945291.435499,0.0
57.0,62054.72344812435,57658.06825853208,-21845.678609094455,-18492.80518207612,-19358.778817508082,-7510.074378260896,-27352.723759737466,-22361.89214728977,-0.08,0.976,0.08,192.0,0.0,0.0,0.0,0.0,0.0,0.0,0.0,0.0,0.0,1674945291.435517,0.0
58.0,61891.578065345064,57659.476418432765,-21827.32782689665,-18483.193931960337,-19327.575782248474,-7596.061539180463,-27363.005562186907,-22506.060899026503,-0.074,0.974,0.082,192.0,253.0,176.0,30.0,112.0,2.0,144.0,0.0,0.0,0.0,1674945291.435535,0.0
59.0,61991.959749693844,57672.4627819613,-21841.118853225573,-18470.27462366517,-19330.48150902766,-7409.759749145478,-27315.97749185294,-22254.82729134885,-0.074,0.974,0.082,192.0,0.0,0.0,0.0,0.0,0.0,0.0,0.0,0.0,0.0,1674945291.435553,0.0
60.0,62178.619167640114,57668.99826157073,-21874.110028041607,-18484.311519183102,-19363.40562861033,-7291.764890165912,-27310.233093527928,-22087.56918758979,-0.074,0.974,0.082,192.0,0.0,0.0,0.0,0.0,0.0,0.0,0.0,0.0,0.0,1674945291.494719,0.0
61.0,62088.54163748523,57655.34134570853,-21874.400600719524,-18502.528190914178,-19366.44546585625,-7473.8869039877545,-27366.470082577478,-22310.013748409005,-0.074,0.974,0.082,192.0,0.0,0.0,0.0,0.0,0.0,0.0,0.0,0.0,0.0,1674945291.494755,0.0
62.0,61903.24567595073,57657.7106306208,-21845.432739905445,-18493.855714065518,-19345.278363857076,-7607.170356174751,-27369.21934714548,-22508.89957057233,-0.074,0.974,0.082,192.0,0.0,0.0,0.0,0.0,0.0,0.0,0.0,0.0,0.0,1674945291.494776,0.0
63.0,61952.68773468587,57669.110020293,-21848.204356217906,-18480.243501692235,-19325.698235714226,-7464.990909694542,-27331.958989138486,-22305.297530328935,-0.074,0.974,0.082,192.0,0.0,0.0,0.0,0.0,0.0,0.0,0.0,0.0,0.0,1674945291.494795,0.0
64.0,62151.05946672672,57666.38310746945,-21876.591071676146,-18492.04522276464,-19346.820634224492,-7324.30903009284,-27307.282663259826,-22082.271824153882,-0.074,0.974,0.082,192.0,0.0,0.0,0.0,0.0,0.0,0.0,0.0,0.0,0.0,1674945291.494829,0.0
65.0,62125.690236769944,57661.33161322256,-21864.543481414734,-18498.95191180133,-19359.248204141644,-7452.920967688677,-27349.549812024812,-22237.884669051728,-0.074,0.974,0.082,192.0,0.0,0.0,0.0,0.0,0.0,0.0,0.0,0.0,0.0,1674945291.494847,0.0
66.0,61930.49245244175,57659.58817715504,-21835.46386187838,-18497.364937945003,-19339.35515157642,-7622.07896972644,-27366.291268621837,-22491.509913386097,-0.074,0.974,0.082,192.0,0.0,0.0,0.0,0.0,0.0,0.0,0.0,0.0,0.0,1674945291.494865,0.0
67.0,61928.97253381879,57668.19359877033,-21839.42012064697,-18487.03843200665,-19345.568936534994,-7508.979142782587,-27356.121224894672,-22360.573394366907,-0.076,0.97,0.082,192.0,253.0,160.0,30.0,80.0,2.0,144.0,0.0,0.0,0.0,1674945291.494883,0.0
68.0,62131.90402172852,57675.52497095168,-21856.586260388645,-18484.400926160924,-19367.384239123374,-7318.229355600996,-27306.098020803693,-22100.75671681842,-0.076,0.97,0.082,192.0,0.0,0.0,0.0,0.0,0.0,0.0,0.0,0.0,0.0,1674945291.494901,0.0
69.0,62154.81455979521,57665.66785164689,-21861.57069940218,-18498.393118189946,-19365.50669258913,-7393.934714071121,-27347.82872770175,-22200.892531978196,-0.076,0.97,0.082,192.0,0.0,0.0,0.0,0.0,0.0,0.0,0.0,0.0,0.0,1674945291.494919,0.0
70.0,61957.38160102149,57656.83891258704,-21833.720425810865,-18504.5174961707,-19327.30756131501,-7607.393873619303,-27362.826748231262,-22488.3583174179,-0.076,0.97,0.082,192.0,0.0,0.0,0.0,0.0,0.0,0.0,0.0,0.0,0.0,1674945291.494936,0.0
71.0,61903.58095211756,57663.63384290145,-21828.378358886046,-18488.75951632971,-19313.91886638628,-7543.646698432768,-27357.618791773177,-22417.793860172496,-0.076,0.97,0.082,192.0,0.0,0.0,0.0,0.0,0.0,0.0,0.0,0.0,0.0,1674945291.494955,0.0
72.0,62093.123745098565,57664.61731965749,-21855.80394933271,-18487.99955701823,-19340.316276587997,-7338.8823674776995,-27306.589759181712,-22132.004455566937,-0.076,0.97,0.082,192.0,0.0,0.0,0.0,0.0,0.0,0.0,0.0,0.0,0.0,1674945291.494973,0.0
73.0,62168.896158802054,57659.45406668831,-21872.344240229635,-18501.38825194696,-19353.21323313871,-7366.486771880004,-27348.566335268777,-22157.284278545892,-0.076,0.97,0.082,192.0,0.0,0.0,0.0,0.0,0.0,0.0,0.0,0.0,0.0,1674945291.494991,0.0
74.0,61986.662386257936,57651.094514262026,-21843.443434648925,-18503.981054303775,-19316.846944909925,-7583.902190196775,-27361.79856798632,-22448.21458437617,-0.076,0.97,0.082,192.0,0.0,0.0,0.0,0.0,0.0,0.0,0.0,0.0,0.0,1674945291.495009,0.0
75.0,61895.89195202493,57665.57844466907,-21825.8526117626,-18485.004423261216,-19330.034474138556,-7573.083945880408,-27360.479815063456,-22452.908450711784,-0.076,0.97,0.082,192.0,0.0,0.0,0.0,0.0,0.0,0.0,0.0,0.0,0.0,1674945291.554453,0.0
76.0,62068.80504713119,57678.073069819584,-21841.90116428151,-18480.064687736594,-19343.847852211937,-7366.665585835646,-27306.947387092998,-22167.767246695432,-0.076,0.97,0.082,192.0,0.0,0.0,0.0,0.0,0.0,0.0,0.0,0.0,0.0,1674945291.554515,0.0
77.0,62189.2809497453,57670.540531938146,-21867.069228538185,-18500.225961235283,-19350.44161682625,-7341.564576812337,-27329.522648992857,-22120.962693806017,-0.064,0.976,0.078,192.0,254.0,0.0,30.0,128.0,2.0,112.0,0.0,0.0,0.0,1674945291.554536,0.0
78.0,62029.95771526787,57665.69020339134,-21842.37055091507,-18507.736147372263,-19345.12190164589,-7537.119989051818,-27364.74899825442,-22406.52858096702,-0.064,0.976,0.078,192.0,0.0,0.0,0.0,0.0,0.0,0.0,0.0,0.0,0.0,1674945291.554556,0.0
79.0,61899.44587939333,57676.50844770771,-21821.76224252728,-18496.314405955603,-19322.010197879103,-7576.034376148507,-27366.38067559966,-22490.92876803026,-0.064,0.976,0.078,192.0,0.0,0.0,0.0,0.0,0.0,0.0,0.0,0.0,0.0,1674945291.554575,0.0
80.0,62032.148186224484,57685.22562804528,-21833.541611855224,-18487.150190728928,-19332.739035217648,-7393.711196626568,-27321.006634355384,-22223.78071830043,-0.064,0.976,0.078,192.0,0.0,0.0,0.0,0.0,0.0,0.0,0.0,0.0,0.0,1674945291.554593,0.0
81.0,62196.63467367109,57689.204238558326,-21845.075111994163,-18483.90918778291,-19368.859454257425,-7329.181710384097,-27317.899741876096,-22095.32524291578,-0.064,0.976,0.078,192.0,0.0,0.0,0.0,0.0,0.0,0.0,0.0,0.0,0.0,1674945291.554611,0.0
82.0,62065.6981546519,57667.590101670045,-21832.08874846563,-18495.532094899667,-19360.991640209155,-7515.572907396902,-27356.389445828136,-22349.03989422797,-0.064,0.976,0.078,192.0,0.0,0.0,0.0,0.0,0.0,0.0,0.0,0.0,0.0,1674945291.554629,0.0
83.0,61897.74714681473,57662.22568300077,-21805.60193128609,-18488.826571563073,-19321.11612810089,-7610.8360422654205,-27359.876317963164,-22504.943311803738,-0.064,0.976,0.078,192.0,0.0,0.0,0.0,0.0,0.0,0.0,0.0,0.0,0.0,1674945291.554647,0.0
84.0,61989.18813338139,57669.17707552637,-21814.56498081267,-18475.013193489696,-19314.34354953093,-7433.7431709460225,-27316.15630580858,-22265.757294387495,-0.064,0.976,0.078,192.0,0.0,0.0,0.0,0.0,0.0,0.0,0.0,0.0,0.0,1674945291.554665,0.0
85.0,62178.06037402873,57666.45016270282,-21845.18687071644,-18485.27264419468,-19336.427073052775,-7298.202192569041,-27304.73456439192,-22086.630414322666,-0.064,0.976,0.078,192.0,0.0,0.0,0.0,0.0,0.0,0.0,0.0,0.0,0.0,1674945291.554683,0.0
86.0,62091.71558519788,57649.93222355035,-21848.405521918005,-18505.255103737727,-19344.87603245688,-7453.457409555604,-27359.585745285243,-22306.03513789596,-0.064,0.976,0.078,192.0,0.0,0.0,0.0,0.0,0.0,0.0,0.0,0.0,0.0,1674945291.554716,0.0
87.0,61903.40213816192,57650.64747937292,-21823.885658250532,-18498.504876912222,-19336.985866664156,-7611.797167276999,-27374.092027436738,-22522.2659137566,-0.064,0.98,0.078,192.0,254.0,0.0,30.0,160.0,2.0,112.0,0.0,0.0,0.0,1674945291.554735,0.0
88.0,61955.21348180932,57669.84762786003,-21821.69518729391,-18478.94710051383,-19349.279326114574,-7457.592482279835,-27342.26314333238,-22327.962199206617,-0.064,0.98,0.078,192.0,0.0,0.0,0.0,0.0,0.0,0.0,0.0,0.0,0.0,1674945291.554753,0.0
89.0,62161.18480696497,57675.52497095168,-21845.678609094455,-18482.121048226483,-19374.201521182244,-7318.564631767826,-27315.105773819185,-22097.5157138724,-0.064,0.98,0.078,192.0,0.0,0.0,0.0,0.0,0.0,0.0,0.0,0.0,0.0,1674945291.554771,0.0
90.0,62135.30148688573,57666.85249410302,-21848.137300984537,-18501.52236241369,-19374.425038626796,-7425.450673753104,-27361.865623219684,-22253.039151792425,-0.064,0.98,0.078,192.0,0.0,0.0,0.0,0.0,0.0,0.0,0.0,0.0,0.0,1674945291.616182,0.0
91.0,61935.65570541093,57664.21498825729,-21815.12377442405,-18498.191952489848,-19332.761386962102,-7598.184954903717,-27365.75482675491,-22507.625521138376,-0.064,0.98,0.078,192.0,0.0,0.0,0.0,0.0,0.0,0.0,0.0,0.0,0.0,1674945291.616219,0.0
92.0,61926.98322856227,57675.636729673955,-21810.6981290219,-18476.488408623747,-19341.88089869987,-7504.5311456359805,-27349.66157074709,-22379.840598087383,-0.064,0.98,0.078,192.0,0.0,0.0,0.0,0.0,0.0,0.0,0.0,0.0,0.0,1674945291.616239,0.0
93.0,62127.61248679311,57677.78249714166,-21837.408463645992,-18481.785772059655,-19364.59027106646,-7341.363411112239,-27311.30597726178,-22116.358234448224,-0.064,0.98,0.078,192.0,0.0,0.0,0.0,0.0,0.0,0.0,0.0,0.0,0.0,1674945291.616258,0.0
94.0,62155.79803655125,57666.74073538074,-21848.18200447345,-18498.996615290238,-19375.54262584956,-7424.266031296973,-27356.680018506053,-22200.95958721156,-0.064,0.98,0.078,192.0,0.0,0.0,0.0,0.0,0.0,0.0,0.0,0.0,0.0,1674945291.616275,0.0
95.0,61961.427266767896,57656.43658118684,-21814.676739534945,-18498.504876912222,-19324.9606281472,-7601.872992738842,-27354.89187894963,-22479.797599291516,-0.064,0.98,0.078,192.0,0.0,0.0,0.0,0.0,0.0,0.0,0.0,0.0,0.0,1674945291.616294,0.0
96.0,61899.602341604514,57663.2091597568,-21804.596102785603,-18482.679841837864,-19316.042282109534,-7519.529166165491,-27348.007541657396,-22424.074700364436,-0.064,0.98,0.078,192.0,0.0,0.0,0.0,0.0,0.0,0.0,0.0,0.0,0.0,1674945291.616312,0.0
97.0,62087.401698518006,57667.67950864787,-21831.21703043187,-18480.93640577035,-19356.744808762647,-7324.554899281848,-27299.280738744827,-22140.743987648963,-0.07,0.976,0.082,192.0,253.0,208.0,30.0,128.0,2.0,144.0,0.0,0.0,0.0,1674945291.616331,0.0
98.0,62177.00984203933,57666.89719759193,-21846.505623639303,-18487.99955701823,-19334.571878262985,-7337.854187232756,-27336.630503729644,-22145.504909217943,-0.07,0.976,0.082,192.0,0.0,0.0,0.0,0.0,0.0,0.0,0.0,0.0,0.0,1674945291.616349,0.0
99.0,61996.1842293959,57662.38214521196,-21820.197620415405,-18487.70898434031,-19316.757537932102,-7552.587396214891,-27361.575050541767,-22437.217526104156,-0.07,0.976,0.082,192.0,0.0,0.0,0.0,0.0,0.0,0.0,0.0,0.0,0.0,1674945291.616367,0.0
100.0,61899.84821079353,57672.75335463922,-21805.60193128609,-18473.89560626693,-19310.96843611818,-7551.961547370142,-27355.718893494475,-22454.54012805702,-0.07,0.976,0.082,192.0,0.0,0.0,0.0,0.0,0.0,0.0,0.0,0.0,0.0,1674945291.616386,0.0
101.0,62065.0499540627,57682.07403207708,-21824.8020797732,-18473.873254522474,-19342.551451033527,-7379.495487152993,-27304.421639969547,-22174.539825265387,-0.07,0.976,0.082,192.0,0.0,0.0,0.0,0.0,0.0,0.0,0.0,0.0,0.0,1674945291.616404,0.0
102.0,62194.75712713684,57675.6143779295,-21848.137300984537,-18494.615673377,-19378.627166584392,-7332.981506941499,-27318.79381165431,-22112.111403001716,-0.07,0.976,0.082,192.0,0.0,0.0,0.0,0.0,0.0,0.0,0.0,0.0,0.0,1674945291.616422,0.0
103.0,62036.774997326735,57667.90302609242,-21822.343387883117,-18502.70700486982,-19350.799244737536,-7539.131646052796,-27353.21549811548,-22394.01160407205,-0.07,0.976,0.082,192.0,0.0,0.0,0.0,0.0,0.0,0.0,0.0,0.0,0.0,1674945291.616441,0.0
104.0,61910.107661498514,57682.27519777718,-21793.487285791314,-18484.982071516763,-19304.888761626335,-7578.537771527502,-27352.589649270732,-22487.68776508424,-0.07,0.976,0.082,192.0,0.0,0.0,0.0,0.0,0.0,0.0,0.0,0.0,0.0,1674945291.616462,0.0
105.0,62036.79734907119,57691.931151381876,-21812.70978602288,-18474.99084174524,-19309.82849715096,-7417.56050796038,-27311.797715639797,-22225.188878201116,-0.07,0.976,0.082,192.0,0.0,0.0,0.0,0.0,0.0,0.0,0.0,0.0,0.0,1674945291.674849,0.0
106.0,62200.25565627285,57688.71250018031,-21839.934210769443,-18484.803257561118,-19354.911965717314,-7325.694838249068,-27316.871561631153,-22098.99092900645,-0.07,0.976,0.082,192.0,0.0,0.0,0.0,0.0,0.0,0.0,0.0,0.0,0.0,1674945291.674884,0.0
107.0,62080.71852692587,57671.32284299408,-21827.12666119655,-18492.648719864934,-19340.226869610175,-7477.23966565605,-27354.534251038345,-22346.648257571254,-0.07200000000000001,0.966,0.08,192.0,253.0,192.0,30.0,48.0,2.0,128.0,0.0,0.0,0.0,1674945291.674921,0.0
108.0,61909.6606266094,57665.9584243248,-21808.619416787555,-18485.13853372795,-19319.104471099912,-7587.50082105408,-27368.79466400083,-22514.554561919518,-0.07200000000000001,0.966,0.08,192.0,0.0,0.0,0.0,0.0,0.0,0.0,0.0,0.0,0.0,1674945291.674939,0.0
109.0,61991.35625259355,57672.28396800566,-21823.03629196123,-18471.034582976652,-19335.421244552286,-7438.124112859263,-27332.98716938343,-22286.231492308558,-0.07200000000000001,0.966,0.08,192.0,0.0,0.0,0.0,0.0,0.0,0.0,0.0,0.0,0.0,1674945291.674957,0.0
110.0,62182.50837117534,57671.4122499719,-21852.42883591996,-18479.729411569766,-19348.519366803095,-7330.187538884586,-27316.111602319674,-22097.98510050596,-0.07200000000000001,0.966,0.08,192.0,0.0,0.0,0.0,0.0,0.0,0.0,0.0,0.0,0.0,1674945291.674975,0.0
111.0,62111.04984415172,57660.236377744244,-21846.483271894846,-18495.04035652165,-19358.89057623036,-7489.264904173006,-27366.067751177285,-22302.03417563846,-0.07200000000000001,0.966,0.08,192.0,0.0,0.0,0.0,0.0,0.0,0.0,0.0,0.0,0.0,1674945291.674993,0.0
112.0,61914.9132865564,57655.54251140863,-21818.78946051472,-18495.465039666302,-19358.711762274714,-7628.784493063033,-27372.549757069322,-22525.73043414717,-0.07200000000000001,0.966,0.08,192.0,0.0,0.0,0.0,0.0,0.0,0.0,0.0,0.0,0.0,1674945291.675012,0.0
113.0,61952.754789919236,57670.60758717151,-21819.25884714828,-18482.568083115588,-19333.119014873388,-7466.8461044843325,-27341.570239254266,-22346.76001629353,-0.07200000000000001,0.966,0.08,192.0,0.0,0.0,0.0,0.0,0.0,0.0,0.0,0.0,0.0,1674945291.67503,0.0
114.0,62157.54147261876,57675.4132122294,-21844.18104221595,-18485.876141294975,-19349.659305770318,-7327.550033038859,-27310.188390039017,-22115.28535071437,-0.07200000000000001,0.966,0.08,192.0,0.0,0.0,0.0,0.0,0.0,0.0,0.0,0.0,0.0,1674945291.675047,0.0
115.0,62144.73392304587,57669.15472378192,-21846.125643983563,-18498.795449590143,-19361.841006498456,-7415.839423637322,-27362.916155209085,-22260.325820484857,-0.07200000000000001,0.966,0.08,192.0,0.0,0.0,0.0,0.0,0.0,0.0,0.0,0.0,0.0,1674945291.675065,0.0
116.0,61948.95499336183,57666.338403980546,-21818.744757025812,-18499.42129843489,-19317.472793754674,-7595.435690335714,-27378.003582716417,-22526.333931247467,-0.07200000000000001,0.966,0.08,192.0,0.0,0.0,0.0,0.0,0.0,0.0,0.0,0.0,0.0,1674945291.675083,0.0
117.0,61933.08525479856,57680.71057566531,-21808.37354759855,-18480.444667392334,-19317.38338677685,-7503.39120666876,-27354.668361505075,-22401.81236288695,-0.078,0.976,0.08,192.0,253.0,144.0,30.0,128.0,2.0,128.0,0.0,0.0,0.0,1674945291.675101,0.0
118.0,62127.14310015954,57676.77666864117,-21838.36958865757,-18490.23473146376,-19366.26665190061,-7329.382876084194,-27306.030965570328,-22139.08995855927,-0.078,0.976,0.08,192.0,0.0,0.0,0.0,0.0,0.0,0.0,0.0,0.0,0.0,1674945291.675119,0.0
119.0,62170.170208236006,57674.49679070673,-21844.717484082877,-18502.148211258438,-19384.37156490941,-7383.384690688216,-27353.282553348847,-22212.15781118367,-0.078,0.976,0.08,192.0,0.0,0.0,0.0,0.0,0.0,0.0,0.0,0.0,0.0,1674945291.675137,0.0
120.0,61979.5768832656,57666.807790614104,-21810.519315066256,-18501.32119671359,-19309.604979706404,-7580.97411167313,-27362.156195897605,-22494.50504714311,-0.078,0.976,0.08,192.0,0.0,0.0,0.0,0.0,0.0,0.0,0.0,0.0,0.0,1674945291.735381,0.0
121.0,61917.43903367985,57676.50844770771,-21795.498942792292,-18480.13174296996,-19294.91988359927,-7519.238593487572,-27350.242716102926,-22449.68979951022,-0.078,0.976,0.08,192.0,0.0,0.0,0.0,0.0,0.0,0.0,0.0,0.0,0.0,1674945291.735418,0.0
122.0,62105.081928382155,57684.577427456075,-21812.150992411494,-18466.675992807865,-19319.61856122238,-7338.837663988789,-27290.83177934072,-22154.646772700165,-0.078,0.976,0.08,192.0,0.0,0.0,0.0,0.0,0.0,0.0,0.0,0.0,0.0,1674945291.735439,0.0
123.0,62192.27608350231,57672.79805812813,-21829.473594364357,-18473.336812655547,-19355.627221539882,-7360.116524710242,-27324.918189635064,-22148.209470297035,-0.078,0.976,0.08,192.0,0.0,0.0,0.0,0.0,0.0,0.0,0.0,0.0,0.0,1674945291.735457,0.0
124.0,62007.11423243454,57656.41422944239,-21809.133506910028,-18482.925711026874,-19342.529099289073,-7563.383288786804,-27353.99780917142,-22445.554726785987,-0.078,0.976,0.08,192.0,0.0,0.0,0.0,0.0,0.0,0.0,0.0,0.0,0.0,1674945291.735475,0.0
125.0,61893.63442583495,57666.606624914006,-21798.717593993857,-18466.385420129947,-19320.155003089312,-7573.843905191888,-27364.056094176307,-22483.887968526837,-0.078,0.976,0.08,192.0,0.0,0.0,0.0,0.0,0.0,0.0,0.0,0.0,0.0,1674945291.735493,0.0
126.0,62046.296840464696,57676.48609596326,-21819.03532970373,-18461.71390553879,-19345.25601211262,-7370.130106226219,-27313.004709840385,-22201.697194778586,-0.078,0.976,0.08,192.0,0.0,0.0,0.0,0.0,0.0,0.0,0.0,0.0,0.0,1674945291.735511,0.0
127.0,62188.766859622825,57675.94965409633,-21841.543536370224,-18478.902397024918,-19365.283175144574,-7307.746387451457,-27323.957064623486,-22124.628379896687,-0.07200000000000001,0.974,0.078,192.0,253.0,192.0,30.0,112.0,2.0,112.0,0.0,0.0,0.0,1674945291.735529,0.0
128.0,62044.642811375,57672.351023239025,-21815.61551280207,-18490.167676230394,-19317.562200732496,-7492.237686185562,-27352.299076592815,-22403.175819298725,-0.07200000000000001,0.974,0.078,192.0,0.0,0.0,0.0,0.0,0.0,0.0,0.0,0.0,0.0,1674945291.735564,0.0
129.0,61900.85403929401,57671.03227031616,-21803.322053351647,-18493.632196620965,-19267.360182685876,-7543.177311799206,-27363.385541842646,-22517.12501253188,-0.07200000000000001,0.974,0.078,192.0,0.0,0.0,0.0,0.0,0.0,0.0,0.0,0.0,0.0,1674945291.735582,0.0
130.0,62028.57190711164,57687.63961644645,-21810.98870169982,-18481.22697844827,-19303.659415681293,-7386.737452356512,-27313.87642787414,-22250.044018035416,-0.07200000000000001,0.974,0.078,192.0,0.0,0.0,0.0,0.0,0.0,0.0,0.0,0.0,0.0,1674945291.735599,0.0
131.0,62197.77461263831,57683.99628210024,-21834.010998488786,-18494.258045465715,-19335.980038163667,-7323.102035892253,-27305.4945237034,-22106.746984332443,-0.07200000000000001,0.974,0.078,192.0,0.0,0.0,0.0,0.0,0.0,0.0,0.0,0.0,0.0,1674945291.735618,0.0
132.0,62082.372556015565,57670.27231100468,-21822.94688498341,-18510.910095084917,-19340.83036671047,-7480.234799413061,-27356.32239059477,-22355.432493142187,-0.07200000000000001,0.974,0.078,192.0,0.0,0.0,0.0,0.0,0.0,0.0,0.0,0.0,0.0,1674945291.735635,0.0
133.0,61911.62758012147,57677.67073841939,-21792.324995079638,-18495.934426299864,-19310.431994251252,-7595.7486147580885,-27358.356399340202,-22519.762518377607,-0.07200000000000001,0.974,0.078,192.0,0.0,0.0,0.0,0.0,0.0,0.0,0.0,0.0,0.0,1674945291.735653,0.0
134.0,61986.9306071914,57687.03611934616,-21803.858495218577,-18486.52434188418,-19310.58845646244,-7441.812150694389,-27323.688843690023,-22298.74846920353,-0.07200000000000001,0.974,0.078,192.0,0.0,0.0,0.0,0.0,0.0,0.0,0.0,0.0,0.0,1674945291.735671,0.0
135.0,62181.770763608314,57689.56186646961,-21827.484289107837,-18493.676900109876,-19354.576689550482,-7312.194384598063,-27301.515913190357,-22104.020071508894,-0.07200000000000001,0.974,0.078,192.0,0.0,0.0,0.0,0.0,0.0,0.0,0.0,0.0,0.0,1674945291.795667,0.0
136.0,62115.45313780942,57676.03906107415,-21828.31130365268,-18507.914961327908,-19358.175320407787,-7458.195979380129,-27352.634352759644,-22296.490943013545,-0.07200000000000001,0.974,0.078,192.0,0.0,0.0,0.0,0.0,0.0,0.0,0.0,0.0,0.0,1674945291.795703,0.0
137.0,61927.989057062754,57675.30145350713,-21799.11992539405,-18494.79448733264,-19322.278418812566,-7610.992504476608,-27360.524518552367,-22520.857753855915,-0.078,0.974,0.084,192.0,253.0,144.0,30.0,112.0,2.0,160.0,0.0,0.0,0.0,1674945291.795724,0.0
138.0,61959.90734814494,57690.92532288138,-21798.292910849206,-18470.118161453982,-19295.165752788278,-7456.8101712238995,-27332.428375772048,-22343.071978458403,-0.078,0.974,0.084,192.0,0.0,0.0,0.0,0.0,0.0,0.0,0.0,0.0,0.0,1674945291.795743,0.0
139.0,62163.86701629961,57697.27321830669,-21825.27146640676,-18468.7100015533,-19289.086078296434,-7291.697834932546,-27290.7423723629,-22098.901522028627,-0.078,0.974,0.084,192.0,0.0,0.0,0.0,0.0,0.0,0.0,0.0,0.0,0.0,1674945291.795761,0.0
140.0,62144.577460834684,57677.80484888612,-21835.173289200462,-18495.867371066495,-19346.68652375776,-7408.642161922713,-27345.75001546741,-22237.68350335163,-0.078,0.974,0.084,192.0,0.0,0.0,0.0,0.0,0.0,0.0,0.0,0.0,0.0,1674945291.795779,0.0
141.0,61941.48951071376,57664.70672663531,-21808.530009809736,-18500.89651356894,-19332.068482883988,-7600.710702027167,-27365.03957093234,-22514.331044474966,-0.078,0.974,0.084,192.0,0.0,0.0,0.0,0.0,0.0,0.0,0.0,0.0,0.0,1674945291.795796,0.0
142.0,61929.2184030078,57684.95740711182,-21791.185056112416,-18472.97918474426,-19321.272590312077,-7504.039407257964,-27342.240791587927,-22398.928987852218,-0.078,0.974,0.084,192.0,0.0,0.0,0.0,0.0,0.0,0.0,0.0,0.0,0.0,1674945291.795814,0.0
143.0,62120.6610942675,57679.123601808984,-21824.89148675102,-18483.998594760727,-19353.21323313871,-7325.136044637686,-27301.11358179016,-22135.737196890976,-0.078,0.974,0.084,192.0,0.0,0.0,0.0,0.0,0.0,0.0,0.0,0.0,0.0,1674945291.795832,0.0
144.0,62171.10898150313,57669.24413075973,-21838.906030524497,-18496.98495828926,-19379.767105551615,-7387.385652945716,-27345.41473930058,-22196.19866564258,-0.078,0.974,0.084,192.0,0.0,0.0,0.0,0.0,0.0,0.0,0.0,0.0,0.0,1674945291.79585,0.0
145.0,61982.817886211626,57671.90398834991,-21805.93720745292,-18492.84988556503,-19351.514500560108,-7571.899303424276,-27368.571146556278,-22483.55269236001,-0.078,0.974,0.084,192.0,0.0,0.0,0.0,0.0,0.0,0.0,0.0,0.0,0.0,1674945291.795868,0.0
146.0,61909.325350442574,57680.107078565015,-21795.65540500348,-18476.823684790575,-19298.227941778656,-7535.354201239848,-27361.41858833058,-22446.135872141826,-0.07200000000000001,0.978,0.08,192.0,253.0,192.0,30.0,144.0,2.0,128.0,0.0,0.0,0.0,1674945291.795886,0.0
147.0,62091.53677124224,57683.728061166774,-21817.671873291954,-18473.47092312228,-19320.378520533865,-7347.845417004278,-27304.779267880833,-22163.207490826546,-0.07200000000000001,0.978,0.08,192.0,0.0,0.0,0.0,0.0,0.0,0.0,0.0,0.0,0.0,1674945291.795904,0.0
148.0,62189.325653234206,57676.62020642999,-21834.994475244817,-18483.573911616077,-19349.50284355913,-7353.187483929096,-27330.640236215622,-22146.264868529426,-0.07200000000000001,0.978,0.08,192.0,0.0,0.0,0.0,0.0,0.0,0.0,0.0,0.0,0.0,1674945291.795922,0.0
149.0,62014.40090112697,57666.24899700272,-21810.31814936616,-18490.391193674946,-19324.044206624534,-7545.591300200379,-27348.78985271333,-22428.276828322036,-0.07200000000000001,0.978,0.08,192.0,0.0,0.0,0.0,0.0,0.0,0.0,0.0,0.0,0.0,1674945291.79594,0.0
150.0,61899.06589973759,57676.91077910791,-21797.778820726733,-18478.500065624725,-19305.20168604871,-7558.667070706734,-27360.524518552367,-22476.869520767872,-0.07200000000000001,0.978,0.08,192.0,0.0,0.0,0.0,0.0,0.0,0.0,0.0,0.0,0.0,1674945291.855935,0.0
151.0,62049.649602132995,57686.32086352359,-21821.203448915894,-18473.60503358901,-19322.30077055702,-7374.376937672728,-27317.40800349808,-22201.25015988948,-0.07200000000000001,0.978,0.08,192.0,0.0,0.0,0.0,0.0,0.0,0.0,0.0,0.0,0.0,1674945291.855971,0.0
152.0,62200.97091209542,57690.388881014456,-21836.223821189862,-18479.640004591944,-19349.03345692557,-7319.883384690689,-27322.59360821171,-22111.038519267862,-0.07200000000000001,0.978,0.08,192.0,0.0,0.0,0.0,0.0,0.0,0.0,0.0,0.0,0.0,1674945291.855991,0.0
153.0,62052.37651495654,57676.35198549652,-21820.13056518204,-18496.98495828926,-19340.763311477105,-7514.7458928520555,-27362.312658108793,-22394.48099070561,-0.07200000000000001,0.978,0.08,192.0,0.0,0.0,0.0,0.0,0.0,0.0,0.0,0.0,0.0,1674945291.85601,0.0
154.0,61898.66356833739,57675.30145350713,-21801.690376006412,-18489.40771691891,-19307.9062471278,-7550.7322014251,-27370.64985879062,-22517.25912299861,-0.07200000000000001,0.978,0.08,192.0,0.0,0.0,0.0,0.0,0.0,0.0,0.0,0.0,0.0,1674945291.856028,0.0
155.0,62008.388281868494,57684.912703622904,-21814.967312212862,-18478.99180400274,-19311.86250589639,-7373.147591727686,-27324.247637301403,-22252.770930858962,-0.07200000000000001,0.978,0.08,192.0,0.0,0.0,0.0,0.0,0.0,0.0,0.0,0.0,0.0,1674945291.856046,0.0
156.0,62178.50740891784,57676.01670932969,-21844.98570501634,-18497.387289689457,-19358.421189596796,-7297.106957090731,-27327.041605358318,-22114.05600476933,-0.076,0.974,0.082,192.0,253.0,160.0,30.0,112.0,2.0,144.0,0.0,0.0,0.0,1674945291.856064,0.0
157.0,62078.90803562499,57666.45016270282,-21829.495946108815,-18502.349376958537,-19357.30360237403,-7467.315491117894,-27364.145501154126,-22343.831937769883,-0.076,0.974,0.082,192.0,0.0,0.0,0.0,0.0,0.0,0.0,0.0,0.0,0.0,1674945291.856082,0.0
158.0,61901.05520499411,57666.405459213915,-21806.205428386384,-18492.179333231372,-19305.805183149005,-7611.1266149433395,-27364.614887787688,-22522.914114345804,-0.076,0.974,0.082,192.0,0.0,0.0,0.0,0.0,0.0,0.0,0.0,0.0,0.0,1674945291.8561,0.0
159.0,61963.26010981323,57674.80971512911,-21822.633960561034,-18482.791600560144,-19276.323232212453,-7437.006525636498,-27338.329236308247,-22316.920437445693,-0.076,0.974,0.082,192.0,0.0,0.0,0.0,0.0,0.0,0.0,0.0,0.0,0.0,1674945291.856117,0.0
160.0,62167.55505413474,57676.955482596815,-21841.744702070322,-18483.126876726972,-19338.617544009394,-7301.353788537239,-27309.182561538528,-22104.13183023117,-0.076,0.974,0.082,192.0,0.0,0.0,0.0,0.0,0.0,0.0,0.0,0.0,0.0,1674945291.856135,0.0
161.0,62117.308332599205,57665.66785164689,-21836.045007234217,-18495.688557110854,-19367.250128656644,-7426.232984809039,-27357.68584700654,-22287.572596975875,-0.076,0.974,0.082,192.0,0.0,0.0,0.0,0.0,0.0,0.0,0.0,0.0,0.0,1674945291.856153,0.0
162.0,61926.98322856227,57667.8136191146,-21804.17141964095,-18485.630272105966,-19326.81582293699,-7587.634931520812,-27366.5594895553,-22520.298960244534,-0.076,0.974,0.082,192.0,0.0,0.0,0.0,0.0,0.0,0.0,0.0,0.0,0.0,1674945291.856171,0.0
163.0,61943.61292643702,57679.16830529789,-21806.205428386384,-18469.84994052052,-19310.499049484617,-7475.742098777545,-27347.247582345914,-22359.366400166324,-0.076,0.974,0.082,192.0,0.0,0.0,0.0,0.0,0.0,0.0,0.0,0.0,0.0,1674945291.856189,0.0
164.0,62151.998239993845,57688.8689623915,-21823.50567859479,-18467.70417305281,-19352.9673639497,-7317.268230589418,-27301.98529982392,-22107.551647132834,-0.076,0.974,0.082,192.0,0.0,0.0,0.0,0.0,0.0,0.0,0.0,0.0,0.0,1674945291.856207,0.0
165.0,62154.81455979521,57679.77180239819,-21825.249114662303,-18483.03746974915,-19368.74769553515,-7402.316618241861,-27348.74514922442,-22231.02268350395,-0.076,0.974,0.082,192.0,0.0,0.0,0.0,0.0,0.0,0.0,0.0,0.0,0.0,1674945291.914557,0.0
166.0,61951.52544397419,57669.534703437654,-21798.807000971676,-18493.028699520673,-19318.29980829952,-7576.861390693354,-27371.07454193527,-22514.956893319715,-0.076,0.976,0.084,192.0,253.0,160.0,30.0,128.0,2.0,160.0,0.0,0.0,0.0,1674945291.914597,0.0
167.0,61910.68880685435,57667.54539818113,-21802.718556251355,-18489.698289596832,-19304.665244181782,-7508.174479982195,-27364.972515698973,-22428.857973677874,-0.076,0.976,0.084,192.0,0.0,0.0,0.0,0.0,0.0,0.0,0.0,0.0,0.0,1674945291.914618,0.0
168.0,62108.32293132817,57669.7135173933,-21830.859402520586,-18493.431030920867,-19320.423224022776,-7327.102998149753,-27312.35650925118,-22155.674952945108,-0.076,0.976,0.084,192.0,0.0,0.0,0.0,0.0,0.0,0.0,0.0,0.0,0.0,1674945291.914637,0.0
169.0,62165.275176200295,57669.93703483785,-21834.435681633437,-18500.114202513007,-19350.73218950417,-7371.180638215618,-27341.79375669882,-22200.445497089087,-0.076,0.976,0.084,192.0,0.0,0.0,0.0,0.0,0.0,0.0,0.0,0.0,0.0,1674945291.914655,0.0
170.0,61974.03365064069,57665.46668594679,-21801.60096902859,-18495.487391410756,-19318.702139699715,-7593.960475201664,-27349.303942835802,-22481.384573147843,-0.076,0.976,0.084,192.0,0.0,0.0,0.0,0.0,0.0,0.0,0.0,0.0,0.0,1674945291.914673,0.0
171.0,61894.95317875781,57675.56967444059,-21796.102439892584,-18486.166713972892,-19330.369750305385,-7541.0985995648625,-27356.4565010615,-22471.795674776517,-0.076,0.976,0.084,192.0,0.0,0.0,0.0,0.0,0.0,0.0,0.0,0.0,0.0,1674945291.914706,0.0
172.0,62066.27930000774,57680.531761709666,-21827.03725421873,-18489.787696574655,-19350.843948226448,-7333.696762764069,-27314.524628463347,-22195.25989237546,-0.076,0.976,0.084,192.0,0.0,0.0,0.0,0.0,0.0,0.0,0.0,0.0,0.0,1674945291.914724,0.0
173.0,62172.69595535946,57678.47540121978,-21847.869080051074,-18501.74587985824,-19366.847797256447,-7340.894024478677,-27345.5041462784,-22167.92370890662,-0.076,0.976,0.084,192.0,0.0,0.0,0.0,0.0,0.0,0.0,0.0,0.0,0.0,1674945291.914742,0.0
174.0,62013.0374447152,57678.40834598641,-21819.41530935947,-18497.94608330084,-19325.1617938473,-7543.736105410589,-27369.331105867757,-22446.135872141826,-0.076,0.976,0.084,192.0,0.0,0.0,0.0,0.0,0.0,0.0,0.0,0.0,0.0,1674945291.91476,0.0
175.0,61887.48769610974,57681.358776254514,-21811.994530200307,-18489.139495985448,-19309.046186095024,-7562.466867264136,-27380.149350184125,-22510.12891651737,-0.076,0.976,0.084,192.0,0.0,0.0,0.0,0.0,0.0,0.0,0.0,0.0,0.0,1674945291.914778,0.0
176.0,62022.380473897516,57679.70474716482,-21840.962391014386,-18490.011214019207,-19342.149119633334,-7373.7510888279785,-27338.664512475076,-22240.142195241715,-0.078,0.968,0.082,192.0,253.0,144.0,30.0,64.0,2.0,144.0,0.0,0.0,0.0,1674945291.914796,0.0
177.0,62173.947653048956,57680.598816943035,-21854.976934787865,-18493.14045824295,-19350.128692403876,-7306.405282784139,-27338.575105497257,-22136.273638757903,-0.078,0.968,0.082,192.0,0.0,0.0,0.0,0.0,0.0,0.0,0.0,0.0,0.0,1674945291.914814,0.0
178.0,62041.02182877324,57674.65325291792,-21830.99351298732,-18495.219170477292,-19334.929506174267,-7509.560288138425,-27370.381637857157,-22395.732688395106,-0.078,0.968,0.082,192.0,0.0,0.0,0.0,0.0,0.0,0.0,0.0,0.0,0.0,1674945291.914832,0.0
179.0,61891.77923104516,57684.04098558915,-21799.70107074989,-18474.923786511874,-19328.983942149156,-7588.841925721398,-27374.784931514852,-22522.198858523236,-0.078,0.968,0.082,192.0,0.0,0.0,0.0,0.0,0.0,0.0,0.0,0.0,0.0,1674945291.914849,0.0
180.0,62001.70511027636,57694.501601994234,-21810.07228017715,-18467.994745730728,-19318.031587366055,-7408.7315689005345,-27329.612055970676,-22277.02257359297,-0.078,0.968,0.082,192.0,0.0,0.0,0.0,0.0,0.0,0.0,0.0,0.0,0.0,1674945291.97488,0.0
181.0,62183.78242060929,57691.081785092574,-21837.050835734706,-18485.60792036151,-19345.479529557175,-7306.7182072065125,-27323.55473322329,-22127.6235136537,-0.078,0.968,0.082,192.0,0.0,0.0,0.0,0.0,0.0,0.0,0.0,0.0,0.0,1674945291.97492,0.0
182.0,62095.62714047756,57687.304340279625,-21818.096556436605,-18491.799353575632,-19336.471776541686,-7480.9277034911765,-27363.27378312037,-22347.967010494114,-0.078,0.968,0.082,192.0,0.0,0.0,0.0,0.0,0.0,0.0,0.0,0.0,0.0,1674945291.974942,0.0
183.0,61920.00948429221,57691.95350312633,-21784.345422309092,-18480.98110925926,-19293.444668465218,-7600.8001090049875,-27353.08138764875,-22534.73818716266,-0.078,0.968,0.082,192.0,0.0,0.0,0.0,0.0,0.0,0.0,0.0,0.0,0.0,1674945291.974963,0.0
184.0,61981.141505377476,57699.24017181876,-21795.901274192485,-18474.633213833957,-19297.847962122913,-7453.166836877685,-27320.447840744,-22331.51612657501,-0.078,0.968,0.082,192.0,0.0,0.0,0.0,0.0,0.0,0.0,0.0,0.0,0.0,1674945291.974984,0.0
185.0,62177.34511820616,57695.26156130571,-21828.803042030697,-18487.61957736249,-19352.430922082774,-7311.099149119753,-27300.912416090065,-22123.84606884075,-0.078,0.968,0.082,192.0,0.0,0.0,0.0,0.0,0.0,0.0,0.0,0.0,0.0,1674945291.975003,0.0
186.0,62122.35982684611,57675.18969478485,-21841.6552950925,-18512.47471719679,-19348.742884247647,-7427.507034242993,-27363.47494882047,-22310.438431553655,-0.07200000000000001,0.97,0.084,192.0,253.0,192.0,30.0,80.0,2.0,160.0,0.0,0.0,0.0,1674945291.975023,0.0
187.0,61927.586725662564,57675.30145350713,-21810.6981290219,-18506.46209793831,-19316.466965254185,-7579.387137816804,-27373.26501289189,-22556.575841495498,-0.07200000000000001,0.97,0.084,192.0,0.0,0.0,0.0,0.0,0.0,0.0,0.0,0.0,0.0,1674945291.975043,0.0
188.0,61938.87435661249,57689.27129379169,-21806.607759786577,-18486.99372851774,-19305.49225872663,-7479.8771715017765,-27351.248544603415,-22397.029089573516,-0.07200000000000001,0.97,0.084,192.0,0.0,0.0,0.0,0.0,0.0,0.0,0.0,0.0,0.0,1674945291.975063,0.0
189.0,62139.3695043766,57683.683357677866,-21833.40750138849,-18490.927635541873,-19346.35124759093,-7320.665695746625,-27313.630558685134,-22143.18032779459,-0.07200000000000001,0.97,0.084,192.0,0.0,0.0,0.0,0.0,0.0,0.0,0.0,0.0,0.0,1674945291.975083,0.0
190.0,62155.753333062334,57682.00697684372,-21832.871059521563,-18493.207513476314,-19343.981962678667,-7373.236998705506,-27358.73637899594,-22245.707779611086,-0.07200000000000001,0.97,0.084,192.0,0.0,0.0,0.0,0.0,0.0,0.0,0.0,0.0,0.0,1674945291.975103,0.0
191.0,61964.31064180263,57680.21883728729,-21796.616530015057,-18488.200722718328,-19303.43589823674,-7558.175332328718,-27367.14063491114,-22511.60413165142,-0.07200000000000001,0.97,0.084,192.0,0.0,0.0,0.0,0.0,0.0,0.0,0.0,0.0,0.0,1674945291.975122,0.0
192.0,61915.18150748986,57677.42486923038,-21804.618454530057,-18488.13366748496,-19287.856732351393,-7490.985988496064,-27367.18533840005,-22451.276773366546,-0.07200000000000001,0.97,0.084,192.0,0.0,0.0,0.0,0.0,0.0,0.0,0.0,0.0,0.0,1674945291.975159,0.0
193.0,62118.515326799796,57691.99820661524,-21824.623265817558,-18476.197835945826,-19328.02281713758,-7317.201175356052,-27312.87059937365,-22160.547633236365,-0.07200000000000001,0.97,0.084,192.0,0.0,0.0,0.0,0.0,0.0,0.0,0.0,0.0,0.0,1674945291.975179,0.0
194.0,62184.74354562087,57682.94575011084,-21833.720425810865,-18489.60888261901,-19363.316221632507,-7350.080591449809,-27347.962838168485,-22189.06845916134,-0.07200000000000001,0.97,0.084,192.0,0.0,0.0,0.0,0.0,0.0,0.0,0.0,0.0,0.0,1674945291.975199,0.0
195.0,61988.94226419238,57673.26744476169,-21807.859457476075,-18497.94608330084,-19350.0169336816,-7547.670012434723,-27368.12411166717,-22487.777172062062,-0.07200000000000001,0.97,0.084,192.0,0.0,0.0,0.0,0.0,0.0,0.0,0.0,0.0,0.0,1674945292.035256,0.0
196.0,61901.32342592758,57684.35391001152,-21794.515466036257,-18481.584606359556,-19330.950895661223,-7543.400829243759,-27362.759692997897,-22484.670279582773,-0.076,0.972,0.08,192.0,253.0,160.0,30.0,96.0,2.0,128.0,0.0,0.0,0.0,1674945292.035296,0.0
197.0,62079.19860830291,57693.249904304736,-21812.910951722974,-18474.65556557841,-19303.659415681293,-7349.410039116149,-27306.053317314785,-22193.3376423523,-0.076,0.972,0.08,192.0,0.0,0.0,0.0,0.0,0.0,0.0,0.0,0.0,0.0,1674945292.03532,0.0
198.0,62193.371318980615,57687.863133891005,-21833.94394325542,-18488.670109351886,-19313.605941963906,-7343.419771602127,-27331.73547169393,-22159.00536286895,-0.076,0.972,0.08,192.0,0.0,0.0,0.0,0.0,0.0,0.0,0.0,0.0,0.0,1674945292.035341,0.0
199.0,62026.649657088485,57676.77666864117,-21809.088803421117,-18500.605940891022,-19336.091796885943,-7542.864387376832,-27361.105663908205,-22450.360351843876,-0.076,0.972,0.08,192.0,0.0,0.0,0.0,0.0,0.0,0.0,0.0,0.0,0.0,1674945292.035362,0.0
200.0,61896.5625043586,57684.48802047825,-21789.285157833714,-18490.10062099703,-19328.402796793318,-7561.5280939970135,-27365.955992455005,-22527.1162423034,-0.076,0.972,0.08,192.0,0.0,0.0,0.0,0.0,0.0,0.0,0.0,0.0,0.0,1674945292.035383,0.0
201.0,62032.1928897134,57686.3655670125,-21814.900256979497,-18486.479638395267,-19315.505840242608,-7381.12716449823,-27323.8006024123,-22253.64264889272,-0.076,0.972,0.08,192.0,0.0,0.0,0.0,0.0,0.0,0.0,0.0,0.0,0.0,1674945292.035403,0.0
202.0,62188.25276950035,57688.980721113774,-21835.84384153412,-18488.915978540896,-19343.713741745203,-7321.693875991568,-27332.070747860762,-22145.86253712923,-0.076,0.972,0.08,192.0,0.0,0.0,0.0,0.0,0.0,0.0,0.0,0.0,0.0,1674945292.035423,0.0
203.0,62063.32886973964,57681.626997187974,-21814.654387790488,-18494.839190821553,-19342.752616733625,-7499.993741511553,-27355.160099883095,-22405.05336583297,-0.076,0.972,0.08,192.0,0.0,0.0,0.0,0.0,0.0,0.0,0.0,0.0,0.0,1674945292.035443,0.0
204.0,61909.481812653765,57685.5162007232,-21794.448410802892,-18485.674975594877,-19312.44365125223,-7583.857486707865,-27369.353457612215,-22550.98790538167,-0.076,0.972,0.08,192.0,0.0,0.0,0.0,0.0,0.0,0.0,0.0,0.0,0.0,1674945292.035463,0.0
205.0,62018.98300874031,57706.9738754003,-21798.65053876049,-18464.530225340157,-19291.50006669761,-7382.468269165549,-27327.712157691978,-22298.2120273366,-0.076,0.972,0.08,192.0,0.0,0.0,0.0,0.0,0.0,0.0,0.0,0.0,0.0,1674945292.035483,0.0
206.0,62198.892199861075,57701.22947707528,-21828.98185598634,-18478.030678991163,-19305.738127915636,-7278.644416170647,-27313.474096473947,-22129.47870844349,-0.07200000000000001,0.972,0.076,192.0,253.0,192.0,30.0,96.0,2.0,96.0,0.0,0.0,0.0,1674945292.035503,0.0
207.0,62107.27239933878,57681.80581114362,-21828.199544930405,-18498.10254551203,-19363.115055932412,-7458.933586947154,-27365.79953024382,-22355.968935009114,-0.07200000000000001,0.972,0.076,192.0,0.0,0.0,0.0,0.0,0.0,0.0,0.0,0.0,0.0,1674945292.035523,0.0
208.0,61924.077501783075,57683.19161929985,-21792.72732647983,-18486.434934906356,-19317.495145499128,-7602.856469494876,-27368.302925622815,-22550.138539092368,-0.07200000000000001,0.972,0.076,192.0,0.0,0.0,0.0,0.0,0.0,0.0,0.0,0.0,0.0,1674945292.035544,0.0
209.0,61974.637147740985,57695.26156130571,-21792.481457290825,-18471.392210887934,-19315.662302453795,-7448.964708920087,-27330.528477493346,-22340.36741737931,-0.07200000000000001,0.972,0.076,192.0,0.0,0.0,0.0,0.0,0.0,0.0,0.0,0.0,0.0,1674945292.035564,0.0
210.0,62170.68429835848,57691.282950792665,-21821.650483805,-18483.797429060633,-19351.44744532674,-7297.755157679935,-27301.180637023528,-22125.008359552427,-0.07200000000000001,0.972,0.076,192.0,0.0,0.0,0.0,0.0,0.0,0.0,0.0,0.0,0.0,1674945292.095643,0.0
211.0,62130.942896716944,57679.86120937601,-21824.824431517653,-18499.734222857263,-19345.278363857076,-7412.598420691303,-27350.46623354748,-22290.99241387754,-0.07200000000000001,0.972,0.076,192.0,0.0,0.0,0.0,0.0,0.0,0.0,0.0,0.0,0.0,1674945292.09568,0.0
212.0,61932.63821990946,57674.161514539905,-21797.175323626438,-18498.683690867867,-19316.86929665438,-7564.143248098284,-27363.02791393136,-22544.751768678638,-0.07200000000000001,0.972,0.076,192.0,0.0,0.0,0.0,0.0,0.0,0.0,0.0,0.0,0.0,1674945292.0957,0.0
213.0,61932.1688332759,57680.665872176396,-21797.89057944901,-18486.479638395267,-19325.675883969772,-7464.767392249989,-27346.93465792354,-22408.830810645915,-0.07200000000000001,0.972,0.076,192.0,0.0,0.0,0.0,0.0,0.0,0.0,0.0,0.0,0.0,1674945292.095718,0.0
214.0,62142.834024767166,57684.62213094499,-21821.963408227373,-18484.803257561118,-19356.07425642899,-7319.391646312672,-27303.996956824896,-22149.14824356416,-0.07200000000000001,0.972,0.076,192.0,0.0,0.0,0.0,0.0,0.0,0.0,0.0,0.0,0.0,1674945292.095752,0.0
215.0,62165.81161806722,57678.09542156404,-21825.562039084678,-18491.620539619988,-19353.615564538904,-7380.188391231107,-27343.13486136614,-22239.58340163033,-0.068,0.978,0.074,192.0,253.0,224.0,30.0,144.0,2.0,80.0,0.0,0.0,0.0,1674945292.095771,0.0
216.0,61958.43213301089,57663.678546390365,-21802.539742295714,-18498.28135946767,-19314.388253019843,-7570.580550501412,-27361.016256930383,-22531.608942938918,-0.068,0.978,0.074,192.0,0.0,0.0,0.0,0.0,0.0,0.0,0.0,0.0,0.0,1674945292.095789,0.0
217.0,61909.2135917203,57673.28979650615,-21793.688451491413,-18476.75662955721,-19286.828552106446,-7515.282334718983,-27350.533288780844,-22458.07170368096,-0.068,0.978,0.074,192.0,0.0,0.0,0.0,0.0,0.0,0.0,0.0,0.0,0.0,1674945292.095807,0.0
218.0,62102.913809169986,57681.425831487875,-21812.93330346743,-18465.312536396093,-19309.090889583935,-7324.666658004125,-27290.67531712953,-22160.927612892105,-0.068,0.978,0.074,192.0,0.0,0.0,0.0,0.0,0.0,0.0,0.0,0.0,0.0,1674945292.095825,0.0
219.0,62170.43842916947,57670.00409007122,-21833.09457696612,-18485.27264419468,-19331.800261950524,-7361.50233286647,-27334.26121881738,-22187.883816705205,-0.068,0.978,0.074,192.0,0.0,0.0,0.0,0.0,0.0,0.0,0.0,0.0,0.0,1674945292.095842,0.0
220.0,61979.800400710155,57657.75533410971,-21812.016881944764,-18499.37659494598,-19285.509799183583,-7558.108277095352,-27358.848137718218,-22490.59349186343,-0.068,0.978,0.074,192.0,0.0,0.0,0.0,0.0,0.0,0.0,0.0,0.0,0.0,1674945292.09586,0.0
221.0,61883.28556815214,57665.1090580355,-21799.589312027612,-18491.08409775306,-19290.516589941573,-7512.018980028508,-27360.61392553019,-22506.329119959966,-0.068,0.978,0.074,192.0,0.0,0.0,0.0,0.0,0.0,0.0,0.0,0.0,0.0,1674945292.095878,0.0
222.0,62053.71761962386,57678.96713959779,-21814.207352901383,-18482.344565671036,-19316.444613509728,-7340.4693413340265,-27303.728735891433,-22212.73895653951,-0.068,0.978,0.074,192.0,0.0,0.0,0.0,0.0,0.0,0.0,0.0,0.0,0.0,1674945292.095896,0.0
223.0,62171.287795458775,57668.08184004806,-21840.09067298063,-18501.455307180324,-19352.632087782873,-7312.440253787072,-27326.41575651357,-22167.789598439886,-0.068,0.978,0.074,192.0,0.0,0.0,0.0,0.0,0.0,0.0,0.0,0.0,0.0,1674945292.095914,0.0
224.0,62013.19390692639,57659.52112192168,-21820.912876237977,-18510.731281129276,-19321.943142645734,-7510.543764894458,-27358.356399340202,-22454.607183290387,-0.068,0.978,0.074,192.0,0.0,0.0,0.0,0.0,0.0,0.0,0.0,0.0,0.0,1674945292.095932,0.0
225.0,61883.08440245204,57674.96617734029,-21797.22002711535,-18488.692461096343,-19305.805183149005,-7577.889570938298,-27370.806321001808,-22536.526326719086,-0.07,0.98,0.08,192.0,253.0,208.0,30.0,160.0,2.0,128.0,0.0,0.0,0.0,1674945292.15608,0.0
226.0,62024.123909965034,57686.186753056856,-21809.40172784349,-18475.03554523415,-19311.504877985106,-7397.13101352823,-27316.98332035343,-22259.297640239914,-0.07,0.98,0.08,192.0,0.0,0.0,0.0,0.0,0.0,0.0,0.0,0.0,0.0,1674945292.156116,0.0
227.0,62188.45393520045,57682.87869487747,-21826.344350140615,-18483.84213254954,-19346.507709802117,-7300.012683869921,-27315.7986778973,-22133.81494686782,-0.07,0.98,0.08,192.0,0.0,0.0,0.0,0.0,0.0,0.0,0.0,0.0,0.0,1674945292.156136,0.0
228.0,62057.18214001443,57668.32770923707,-21814.252056390294,-18497.454344922822,-19333.364884062397,-7459.71589800309,-27353.93075393805,-22389.764772625538,-0.07,0.98,0.08,192.0,0.0,0.0,0.0,0.0,0.0,0.0,0.0,0.0,0.0,1674945292.156155,0.0
229.0,61891.7568793007,57674.161514539905,-21791.98971891281,-18483.819780805086,-19303.055918581,-7562.332756797405,-27367.051227933316,-22548.909193147327,-0.07,0.98,0.08,192.0,0.0,0.0,0.0,0.0,0.0,0.0,0.0,0.0,0.0,1674945292.156172,0.0
230.0,61984.203694367854,57682.69988092183,-21805.26665511926,-18467.815931775087,-19307.77213666107,-7432.893804656721,-27328.047433858806,-22304.090536128348,-0.07,0.98,0.08,192.0,0.0,0.0,0.0,0.0,0.0,0.0,0.0,0.0,0.0,1674945292.15619,0.0
231.0,62169.946690791454,57681.55994195461,-21832.289914165725,-18471.280452165658,-19328.02281713758,-7309.042788629865,-27308.10967780467,-22117.408766437624,-0.07,0.98,0.08,192.0,0.0,0.0,0.0,0.0,0.0,0.0,0.0,0.0,0.0,1674945292.156208,0.0
